#Acq. time (s)=	5
#Accumulations=	2
#Range (nm)=	520...900
#Windows=	8
#Auto scanning=	Off
#Autofocus=	Off
#AutoExposure=	Off
#Spike filter=	Multiple accum.
#Delay time (s)=	0
#Binning=	1
#Readout mode=	Signal
#DeNoise=	Off
#ICS correction=	On
#Dark correction=	Off
#Inst. Process=	Off
#Detector temperature (°C)=	-59.98
#Instrument=	LabRAM HR Evol
#Detector=	Syncerity OE
#Objective=	x50_VIS
#Grating=	600 (500nm)
#ND Filter=	10%
#Laser=	514nm_Edge
#Hole=	199.981
#Range=	Auto
#StageXY=	Marzhauser
#StageZ=	Marzhauser
#X (µm)=	-19144.6
#Y (µm)=	7183.9
#Z (µm)=	-16.2
#Full time(mm:ss)=	2:05
#Project=	
#Sample=	
#Site=	
#Title=	LT_191023_M3_borda
#Remark=	
#Date=	27.10.2023 13:35
#Acquired=	27.10.2023 13:35:17
520.044	39.6377
520.097	44.9434
520.149	37.6708
520.201	34.0124
520.254	46.453
520.306	44.5882
520.359	40.9599
520.411	40.9122
520.464	37.3257
520.516	47.9733
520.569	42.6454
520.621	46.2191
520.674	44.474
520.726	44.5163
520.778	46.3466
520.831	39.2592
520.883	42.8711
520.936	48.2671
520.988	41.1385
521.041	44.7286
521.093	48.3113
521.146	39.3629
521.198	37.5689
521.25	46.5051
521.303	46.4923
521.355	48.2601
521.408	32.1529
521.46	46.4024
521.513	41.0037
521.565	49.8574
521.617	35.57
521.67	42.6387
521.722	40.8271
521.775	33.705
521.827	39.0083
521.88	38.9943
521.932	46.0716
521.984	42.5209
522.037	33.663
522.089	44.3057
522.142	42.5585
522.194	39.0464
522.247	35.5355
522.299	42.6928
522.352	32.0559
522.404	41.0016
522.456	39.2525
522.509	46.4234
522.561	39.3075
522.614	39.3324
522.666	46.5119
522.719	37.5876
522.771	39.3936
522.823	39.4019
522.876	41.1908
522.928	41.1758
522.981	37.5679
523.033	35.739
523.086	41.038
523.138	44.5253
523.19	40.8814
523.243	35.4786
523.295	47.8116
523.348	44.2077
523.4	45.9294
523.453	37.0706
523.505	44.1066
523.557	42.3168
523.61	36.9996
523.662	40.4883
523.715	42.2124
523.767	40.4273
523.82	36.9023
523.872	49.2145
523.924	43.9727
523.977	45.7809
524.029	44.0766
524.082	38.8393
524.134	49.4959
524.186	47.7866
524.239	35.4387
524.291	44.3493
524.344	47.9524
524.396	42.6738
524.449	42.7223
524.501	51.6781
524.553	39.2416
524.606	42.8431
524.658	35.724
524.711	48.2449
524.763	41.1012
524.815	48.2393
524.868	32.1436
524.92	44.6107
524.973	44.5698
525.025	49.869
525.078	35.5871
525.13	44.448
525.182	40.8673
525.235	40.8515
525.287	31.9648
525.34	44.3941
525.392	40.8444
525.444	39.0706
525.497	37.2947
525.549	40.8434
525.602	42.6133
525.654	40.8321
525.706	47.9317
525.759	51.4913
525.811	40.8579
525.864	39.1145
525.916	46.2813
525.969	33.8704
526.021	44.6384
526.073	44.712
526.126	46.5742
526.178	39.4665
526.231	46.7047
526.283	41.3667
526.335	46.8176
526.388	41.4616
526.44	50.5264
526.493	34.3161
526.545	43.3775
526.597	52.4414
526.65	45.2221
526.702	41.6086
526.755	48.8402
526.807	47.0179
526.859	50.6114
526.912	45.1618
526.964	50.5469
527.017	48.7082
527.069	43.2695
527.121	43.2484
527.174	48.6378
527.226	52.2291
527.279	34.2136
527.331	37.8087
527.383	43.1997
527.436	46.7842
527.488	41.3689
527.54	43.1476
527.593	46.7213
527.645	44.9049
527.698	34.1154
527.75	52.0572
527.802	44.8712
527.855	43.0782
527.907	41.2931
527.96	44.9039
528.012	46.7299
528.064	48.5657
528.117	41.4077
528.169	41.4474
528.222	48.705
528.274	48.7584
528.326	43.3935
528.379	43.4526
528.431	43.5175
528.484	52.6655
528.536	47.289
528.588	38.2477
528.641	47.4098
528.693	41.9798
528.745	49.3201
528.798	49.3556
528.85	56.7069
528.903	45.7621
528.955	43.9571
529.007	43.974
529.06	49.4746
529.112	38.4698
529.164	43.9397
529.217	51.2223
529.269	49.3499
529.322	40.1771
529.374	51.0946
529.426	47.4086
529.479	45.5468
529.531	40.0415
529.584	49.0856
529.636	50.8408
529.688	52.5939
529.741	39.8583
529.793	50.6906
529.845	45.2374
529.898	47.0332
529.95	36.172
530.003	43.397
530.055	36.154
530.107	50.5984
530.16	45.1618
530.212	45.1501
530.264	50.5631
530.317	41.5388
530.369	45.167
530.422	57.8481
530.474	43.4212
530.526	41.6531
530.579	47.1396
530.631	45.3838
530.683	54.5359
530.736	54.6183
530.788	41.9425
530.841	54.8017
530.893	49.407
530.945	47.6548
530.998	55.0642
531.05	53.2883
531.102	51.4927
531.155	38.6418
531.207	51.5468
531.259	57.0988
531.312	46.0777
531.364	47.9612
531.417	49.8553
531.469	51.7553
531.521	53.6555
531.574	48.1435
531.626	53.7299
531.678	55.6053
531.731	53.7686
531.783	44.5122
531.835	48.241
531.888	48.2666
531.94	50.1552
531.992	42.7543
532.045	46.5027
532.097	46.5284
532.15	52.1335
532.202	50.2869
532.254	59.6149
532.307	52.1795
532.359	52.2034
532.411	42.9093
532.464	50.4143
532.516	54.2018
532.568	52.3862
532.621	50.5634
532.673	46.8544
532.726	46.8795
532.778	50.6437
532.83	54.3978
532.883	46.89
532.935	56.2591
532.987	50.6259
533.04	56.2457
533.092	46.8689
533.144	52.4902
533.197	33.7404
533.249	52.4768
533.301	50.5927
533.354	50.5838
533.406	48.7056
533.458	54.3259
533.511	54.3305
533.563	46.8403
533.615	43.0915
533.668	48.7003
533.72	52.4216
533.773	52.3873
533.825	37.3923
533.877	56.0499
533.93	61.6188
533.982	50.39
534.034	44.7681
534.087	54.0595
534.139	50.2864
534.191	48.3687
534.244	48.3052
534.296	46.3861
534.348	61.1599
534.401	51.8505
534.453	51.8273
534.505	57.3741
534.558	46.2754
534.61	57.3954
534.662	55.5582
534.715	51.8665
534.767	62.9955
534.819	53.7475
534.872	61.1878
534.924	55.6599
534.976	57.561
535.029	46.462
535.081	65.1052
535.133	67.0172
535.186	55.8789
535.238	52.17
535.29	48.4491
535.343	68.9479
535.395	52.1791
535.447	59.6444
535.5	65.261
535.552	57.8355
535.604	52.2744
535.657	48.5756
535.709	54.218
535.761	61.7366
535.814	54.2891
535.866	58.0755
535.918	67.4994
535.971	54.4258
536.023	52.5987
536.075	60.1598
536.128	54.544
536.18	67.7082
536.232	52.6348
536.285	58.2209
536.337	71.2881
536.389	56.2196
536.442	50.556
536.494	61.7624
536.546	56.1419
536.599	56.1487
536.651	52.4128
536.703	50.5383
536.755	52.3894
536.808	54.2177
536.86	54.1567
536.912	57.8164
536.965	61.4687
537.017	50.2397
537.069	48.336
537.122	57.5826
537.174	55.6736
537.226	53.7608
537.279	55.5478
537.331	59.1755
537.383	60.9497
537.436	49.8149
537.488	58.9919
537.54	60.8023
537.593	60.7816
537.645	58.9251
537.697	62.5898
537.75	55.2026
537.802	68.0417
537.854	56.9643
537.906	67.933
537.959	58.7066
538.011	69.6703
538.063	56.8145
538.116	53.1437
538.168	62.3166
538.22	60.5064
538.273	55.033
538.325	58.7324
538.377	55.0874
538.43	62.4549
538.482	53.2832
538.534	62.4789
538.586	51.4579
538.639	58.8147
538.691	47.7942
538.743	58.8374
538.796	64.3739
538.848	53.3582
538.9	53.378
538.953	62.6004
539.005	57.087
539.057	62.612
539.109	60.7596
539.162	62.5795
539.214	58.8718
539.266	57.0043
539.319	49.6262
539.371	62.4688
539.423	67.9619
539.476	51.4211
539.528	62.4323
539.58	67.9345
539.633	62.4198
539.685	60.5758
539.737	60.5648
539.789	69.7251
539.842	62.3679
539.894	67.8485
539.946	75.1562
539.999	58.6362
540.051	62.2773
540.103	62.2549
540.155	69.5564
540.208	75.0279
540.26	65.8669
540.312	53.0577
540.365	62.215
540.417	67.7295
540.469	60.4421
540.521	60.4859
540.574	66.0349
540.626	60.5726
540.678	56.9284
540.731	62.4519
540.783	66.1274
540.835	66.1234
540.888	58.7759
540.94	62.4592
540.992	79.0217
541.044	66.1939
541.097	57.0366
541.149	64.4366
541.201	62.6301
541.254	62.659
541.306	60.8399
541.358	59.0172
541.41	68.2607
541.463	55.3615
541.515	59.0626
541.567	66.4493
541.62	70.1387
541.672	57.2157
541.724	60.9096
541.776	59.0769
541.829	62.7959
541.881	60.9842
541.933	62.8706
541.985	72.1518
542.038	62.9172
542.09	53.6607
542.142	59.1882
542.195	59.148
542.247	68.33
542.299	55.3488
542.351	70.0397
542.404	68.1332
542.456	68.0754
542.508	58.8319
542.56	56.9569
542.613	58.7631
542.665	66.0799
542.717	64.2213
542.77	67.8694
542.822	73.3486
542.874	62.3238
542.926	62.2977
542.979	65.9305
543.031	64.0654
543.083	67.6901
543.135	62.1713
543.188	73.1153
543.24	67.6185
543.292	65.7936
543.344	69.4695
543.397	64.0193
543.449	60.4031
543.501	64.1112
543.554	69.6509
543.606	73.3472
543.658	69.6882
543.71	60.5086
543.763	56.8204
543.815	71.4525
543.867	76.9209
543.919	71.413
543.972	60.4279
544.024	67.7668
544.076	67.7891
544.128	64.149
544.181	67.84
544.233	78.8692
544.285	73.3922
544.337	66.0764
544.39	75.2811
544.442	73.4708
544.494	75.331
544.547	67.9981
544.599	68.0097
544.651	66.179
544.703	69.861
544.755	58.8337
544.808	82.7375
544.86	73.543
544.912	77.2128
544.965	64.3327
545.017	67.9933
545.069	71.6525
545.121	64.2925
545.174	73.4696
545.226	77.137
545.278	69.7797
545.33	66.0836
545.383	73.3793
545.435	76.9772
545.487	75.0617
545.539	69.4924
545.591	71.2553
545.644	73.0371
545.696	73.0149
545.748	71.1828
545.8	73.0032
545.853	71.1627
545.905	78.4238
545.957	85.6549
546.009	80.1132
546.062	74.5787
546.114	76.3304
546.166	65.3784
546.218	72.6001
546.271	81.6339
546.323	79.7805
546.375	70.6776
546.427	70.6394
546.48	79.6555
546.532	77.8142
546.584	70.5592
546.636	79.6013
546.689	70.5639
546.741	83.2494
546.793	81.4657
546.845	88.7393
546.898	83.3378
546.95	65.245
547.002	77.957
547.054	90.6701
547.106	83.427
547.159	74.3578
547.211	94.2937
547.263	88.8327
547.315	88.8098
547.368	79.7313
547.42	86.9718
547.472	92.413
547.524	92.4321
547.577	79.771
547.629	90.6826
547.681	87.085
547.733	90.7356
547.785	87.1178
547.838	98.0122
547.89	96.1976
547.942	88.9389
547.994	79.8694
548.047	92.5898
548.099	85.3461
548.151	92.6306
548.203	89.0136
548.255	92.6528
548.308	85.3786
548.36	88.9907
548.412	88.9587
548.464	88.9202
548.517	92.5082
548.569	81.5916
548.621	83.3777
548.673	99.6696
548.725	86.9767
548.778	96.0391
548.83	83.3631
548.882	86.9972
548.934	90.625
548.987	85.1754
549.039	99.6341
549.091	103.187
549.143	92.2411
549.195	95.7581
549.248	83.0254
549.3	97.3802
549.352	99.1226
549.404	99.086
549.456	104.468
549.509	100.844
549.561	108.009
549.613	98.9514
549.665	97.0763
549.718	104.175
549.77	102.294
549.822	96.8467
549.874	91.4292
549.926	96.7893
549.979	98.5751
550.031	96.775
550.083	105.712
550.135	103.875
550.187	96.6452
550.24	100.138
550.292	112.546
550.344	107.085
550.396	98.0836
550.448	90.9009
550.501	106.917
550.553	106.925
550.605	101.606
550.657	99.8571
550.709	99.8803
550.762	103.448
550.814	106.986
550.866	99.8034
550.918	106.867
550.97	117.486
551.023	106.757
551.075	112.059
551.127	119.144
551.179	113.777
551.231	110.178
551.284	122.554
551.336	122.483
551.388	125.968
551.44	115.284
551.492	125.915
551.545	125.932
551.597	127.739
551.649	131.318
551.701	152.63
551.753	143.745
551.806	152.584
551.858	163.184
551.91	172.013
551.962	200.364
552.014	212.783
552.067	244.732
552.119	290.89
552.171	360.122
552.223	519.852
552.275	1004.38
552.327	2293.22
552.38	4525.98
552.432	8191.34
552.484	12195.3
552.536	13428.7
552.588	10072.8
552.641	5143.47
552.693	1921.01
552.745	819.589
552.797	488.599
552.849	333.807
552.901	275.06
552.954	223.512
553.006	189.771
553.058	191.538
553.11	188.007
553.162	170.302
553.215	147.283
553.267	150.896
553.319	133.214
553.371	133.293
553.423	128.035
553.475	145.884
553.528	131.683
553.58	129.897
553.632	133.411
553.684	122.67
553.736	131.475
553.788	120.746
553.841	122.475
553.893	122.463
553.945	117.158
553.997	117.199
554.049	122.576
554.102	115.511
554.154	127.978
554.206	133.32
554.258	111.984
554.31	122.636
554.362	133.283
554.414	124.377
554.467	108.362
554.519	124.313
554.571	124.268
554.623	118.894
554.675	134.813
554.727	124.133
554.78	131.2
554.832	116.998
554.884	118.749
554.936	116.943
554.988	116.892
555.04	129.216
555.093	116.752
555.145	127.287
555.197	125.45
555.249	121.856
555.301	125.328
555.353	135.844
555.406	132.224
555.458	130.349
555.51	126.699
555.562	130.078
555.614	129.941
555.666	136.835
555.719	136.731
555.771	138.409
555.823	126.105
555.875	136.594
555.927	131.335
555.979	143.587
556.031	141.815
556.084	127.768
556.136	132.951
556.188	129.369
556.24	125.789
556.292	122.228
556.344	134.407
556.396	144.871
556.449	115.218
556.501	130.966
556.553	143.229
556.605	131.022
556.657	129.272
556.709	134.489
556.762	130.96
556.814	139.649
556.866	137.87
556.918	127.38
556.97	130.867
557.022	136.117
557.074	118.696
557.127	125.727
557.179	132.779
557.231	127.614
557.283	136.441
557.335	136.526
557.387	136.605
557.439	124.41
557.492	124.47
557.544	124.527
557.596	129.851
557.648	128.163
557.7	128.236
557.752	112.496
557.804	124.882
557.856	126.724
557.909	121.52
557.961	130.405
558.013	128.718
558.065	125.266
558.117	130.641
558.169	128.96
558.221	121.973
558.273	123.81
558.326	123.853
558.378	129.166
558.43	123.821
558.482	106.074
558.534	114.839
558.586	121.842
558.638	121.814
558.691	118.296
558.743	120.106
558.795	130.764
558.847	121.972
558.899	116.682
558.951	121.964
559.003	120.142
559.055	135.956
559.108	123.504
559.16	123.404
559.212	126.816
559.264	116.132
559.316	142.364
559.368	119.37
559.42	122.733
559.472	131.359
559.525	127.748
559.577	127.672
559.629	129.368
559.681	122.332
559.733	122.273
559.785	134.404
559.837	130.78
559.889	125.391
559.941	111.305
559.994	118.102
560.046	133.57
560.098	128.231
560.15	128.111
560.202	124.532
560.254	131.312
560.306	120.793
560.358	122.338
560.41	129.02
560.463	127.092
560.515	138.903
560.567	123.305
560.619	141.982
560.671	131.585
560.723	128.04
560.775	136.431
560.827	131.163
560.879	129.307
560.932	127.465
560.984	132.442
561.036	132.352
561.088	127.203
561.14	139.026
561.192	135.584
561.244	133.822
561.296	126.964
561.348	135.33
561.4	131.86
561.453	136.868
561.505	141.912
561.557	138.549
561.609	141.973
561.661	143.715
561.713	128.535
561.765	145.468
561.817	140.394
561.869	150.535
561.921	130.235
561.974	131.937
562.026	152.263
562.078	145.528
562.13	132.015
562.182	137.104
562.234	138.795
562.286	133.71
562.338	137.096
562.39	147.275
562.442	155.794
562.494	155.876
562.547	155.971
562.599	144.192
562.651	144.27
562.703	144.334
562.755	146.084
562.807	135.936
562.859	144.479
562.911	154.734
562.963	159.9
563.015	144.653
563.067	151.526
563.12	148.181
563.172	156.753
563.224	149.981
563.276	153.42
563.328	158.55
563.38	150.026
563.432	172.175
563.484	160.221
563.536	167.012
563.588	153.354
563.64	160.143
563.692	163.516
563.744	165.168
563.797	163.391
563.849	156.494
563.901	171.699
563.953	164.808
564.005	178.329
564.057	152.821
564.109	173.191
564.161	169.802
564.213	169.802
564.265	186.752
564.317	168.01
564.369	164.511
564.421	167.765
564.474	172.689
564.526	170.832
564.578	168.975
564.63	170.491
564.682	165.246
564.734	161.678
564.786	164.83
564.838	157.888
564.89	149.296
564.942	165.881
564.994	165.725
565.046	172.293
565.098	170.512
565.15	168.731
565.202	153.576
565.255	168.434
565.307	164.902
565.359	161.353
565.411	167.769
565.463	172.513
565.515	160.694
565.567	157.199
565.619	163.652
565.671	165.159
565.723	166.681
565.775	173.16
565.827	164.805
565.879	169.635
565.931	162.931
565.983	172.668
566.035	167.587
566.087	154.298
566.139	165.631
566.192	160.566
566.244	163.707
566.296	165.221
566.348	166.741
566.4	174.795
566.452	171.403
566.504	169.637
566.556	177.643
566.608	167.722
566.66	177.35
566.712	172.348
566.764	169.002
566.816	162.437
566.868	173.766
566.92	178.62
566.972	173.753
567.024	172.151
567.076	177.059
567.128	172.225
567.18	164.136
567.232	177.166
567.285	188.565
567.337	165.819
567.389	173.962
567.441	188.623
567.493	183.791
567.545	175.721
567.597	179.048
567.649	175.865
567.701	188.96
567.753	179.238
567.805	182.541
567.857	187.478
567.909	182.645
567.961	179.456
568.013	186.069
568.065	181.26
568.117	191.114
568.169	181.44
568.221	183.107
568.273	181.531
568.325	186.228
568.377	190.565
568.429	192.348
568.481	184.869
568.533	196.341
568.585	189.382
568.637	193.719
568.69	189.237
568.742	191.912
568.794	194.45
568.846	189.514
568.898	195.374
568.95	189.23
569.002	177.39
569.054	189.259
569.106	194.843
569.158	198.436
569.21	186.42
569.262	205.561
569.314	195.585
569.366	195.252
569.418	193.322
569.47	198.153
569.522	204.489
569.574	193.353
569.626	198.718
569.678	203.685
569.73	201.978
569.782	199.784
569.834	197.747
569.886	200.854
569.938	208.25
569.99	204.537
570.042	208.494
570.094	217.682
570.146	205.781
570.198	205.93
570.25	209.425
570.302	204.832
570.354	209.24
570.406	207.059
570.458	208.697
570.51	216.749
570.562	208.107
570.614	211.551
570.666	219.201
570.718	223.521
570.77	216.846
570.822	208.049
570.874	218.639
570.926	219.972
570.978	212.718
571.03	221.549
571.082	233.466
571.134	231.015
571.186	226
571.238	229.888
571.29	230.607
571.342	230.851
571.394	228.784
571.446	238.195
571.498	239.102
571.55	239.182
571.602	232.794
571.654	242.519
571.706	244.619
571.758	242.827
571.81	244.43
571.862	249.359
571.914	251.86
571.966	248.484
572.018	252.831
572.07	255.491
572.122	250.004
572.174	254.328
572.226	263.554
572.278	258.981
572.33	261.008
572.382	268.538
572.434	261.8
572.486	269.451
572.538	277.504
572.59	277.18
572.642	282.68
572.694	280.013
572.746	279.522
572.798	288.637
572.85	294.456
572.902	282.378
572.954	300.225
573.006	312.97
573.058	305.558
573.11	322.529
573.162	317.855
573.214	310.576
573.266	318.3
573.312	327.783
573.364	324.684
573.416	316.959
573.469	329.343
573.521	335.552
573.573	320.113
573.625	349.509
573.677	340.214
573.73	347.881
573.782	363.22
573.834	349.157
573.886	364.449
573.938	356.626
573.991	361.249
574.043	364.444
574.095	378.557
574.147	366.45
574.199	400.715
574.252	379.187
574.304	399.283
574.356	391.352
574.408	400.299
574.46	412.262
574.513	388.761
574.565	391.577
574.617	411.399
574.669	403.512
574.721	411.03
574.774	413.907
574.826	421.371
574.878	405.756
574.93	428.563
574.982	416.047
575.035	429.647
575.087	412.568
575.139	438.428
575.191	436.679
575.243	416.556
575.296	425.547
575.348	422.307
575.4	409.904
575.452	432.665
575.504	415.643
575.556	435.25
575.609	453.274
575.661	430.095
575.713	416.135
575.765	423.595
575.817	432.656
575.87	429.583
575.922	453.932
575.974	444.719
576.026	424.77
576.078	421.498
576.131	425.785
576.183	437.663
576.235	417.671
576.287	411.421
576.339	429.518
576.391	397.574
576.444	417.242
576.496	391.389
576.548	404.959
576.6	413.947
576.652	397.132
576.705	384.848
576.757	398.3
576.809	395.074
576.861	397.9
576.913	381.072
576.965	388.46
577.018	376.222
577.07	394.225
577.122	374.489
577.174	380.447
577.226	368.303
577.279	377.305
577.331	360.66
577.383	366.66
577.435	365.115
577.487	362.057
577.539	360.494
577.592	364.94
577.644	361.82
577.696	366.212
577.748	343.467
577.8	344.828
577.852	361.248
577.905	347.578
577.957	324.907
578.009	341.357
578.061	341.262
578.113	342.66
578.165	344.046
578.218	345.421
578.27	351.293
578.322	336.151
578.374	325.521
578.426	331.386
578.478	344.723
578.531	346.035
578.583	323.359
578.635	347.058
578.687	324.358
578.739	334.537
578.791	334.247
578.844	325.013
578.896	324.735
578.948	334.875
579	321.203
579.052	325.378
579.104	320.626
579.157	321.798
579.209	327.389
579.261	316.662
579.313	326.626
579.365	336.543
579.417	339.055
579.47	338.626
579.522	327.935
579.574	317.315
579.626	344.93
579.678	344.69
579.73	323.97
579.782	360.433
579.835	323.626
579.887	330.737
579.939	320.249
579.991	334.58
580.043	338.642
