#Acq. time (s)=	5
#Accumulations=	3
#Range (nm)=	520...900
#Windows=	24
#Auto scanning=	On
#Autofocus=	Off
#AutoExposure=	Off
#Spike filter=	Multiple accum.
#Delay time (s)=	0
#Binning=	1
#Readout mode=	Signal
#DeNoise=	Off
#ICS correction=	Off
#Dark correction=	Off
#Inst. Process=	Off
#Detector temperature (°C)=	-59.98
#Instrument=	LabRAM HR Evol
#Detector=	Syncerity OE
#Objective=	x50_VIS
#Grating=	600 (500nm)
#ND Filter=	10%
#Laser=	514nm_Edge
#Hole=	199.981
#Range=	Auto
#StageXY=	Marzhauser
#StageZ=	Marzhauser
#X (µm)=	-24277.9
#Y (µm)=	-158.8
#Z (µm)=	1.6
#Full time(mm:ss)=	5:25
#Project=	
#Sample=	
#Site=	
#Title=	M1_controle
#Remark=	
#Date=	19.02.2024 14:03
#Acquired=	19.02.2024 14:03:39
520.013	36.1398
520.065	38.5968
520.117	31.411
520.17	30.9145
520.222	31.2191
520.274	30.4393
520.327	26.4351
520.379	34.8298
520.431	33.3326
520.483	33.681
520.536	31.0062
520.588	36.38
520.64	27.4661
520.693	30.3756
520.745	28.721
520.797	35.2464
520.85	33.3628
520.902	35.5765
520.954	30.9026
521.007	32.4235
521.059	33.0427
521.111	35.8834
521.163	31.6525
521.216	38.1852
521.268	36.5006
521.32	34.525
521.373	32.4002
521.425	32.7016
521.477	31.9635
521.529	36.8974
521.582	31.7216
521.634	35.9614
521.686	32.1489
521.739	36.4075
521.791	31.6727
521.843	28.5689
521.896	32.5658
521.948	33.8306
522	31.605
522.052	37.2187
522.105	31.6246
522.157	32.9338
522.209	34.7288
522.262	37.5287
522.314	31.9144
522.366	33.1512
522.418	31.2643
522.471	36.6967
522.523	35.0894
522.575	36.6796
522.628	29.4665
522.68	33.5202
522.732	31.5408
522.784	32.4512
522.837	30.4615
522.889	32.668
522.941	31.9159
522.994	32.4609
523.046	35.475
523.098	32.5315
523.15	30.9984
523.203	35.8989
523.255	33.2348
523.307	36
523.36	32.0193
523.412	31.7104
523.464	31.8749
523.516	31.6331
523.569	33.6062
523.621	31.0952
523.673	31.3471
523.726	38.3998
523.778	36.1766
523.83	30.0458
523.882	32.0066
523.935	36.7746
523.987	32.6743
524.039	32.8112
524.091	34.2735
524.144	36.2347
524.196	36.1769
524.248	32.0497
524.301	35.9487
524.353	33.0019
524.405	31.7936
524.457	35.4483
524.51	32.8102
524.562	32.7215
524.614	34.611
524.666	33.2251
524.719	42.3752
524.771	32.1057
524.823	34.0221
524.875	35.4563
524.928	37.5662
524.98	32.9837
525.032	36.3275
525.085	33.6492
525.137	35.0327
525.189	30.7988
525.241	37.9786
525.294	35.0816
525.346	34.4841
525.398	32.4477
525.45	37.378
525.503	31.8695
525.555	37.519
525.607	31.8504
525.659	31.8337
525.712	35.0805
525.764	34.4404
525.816	31.3854
525.868	36.6759
525.921	32.6419
525.973	38.9152
526.025	30.125
526.077	34.9424
526.13	34.5257
526.182	34.7458
526.234	27.8834
526.286	36.2058
526.339	33.704
526.391	37.5182
526.443	35.6527
526.495	35.822
526.548	33.4873
526.6	34.9832
526.652	34.2598
526.704	35.5587
526.757	32.5993
526.809	38.6179
526.861	29.525
526.913	37.4391
526.966	36.0801
527.018	35.4297
527.07	33.2554
527.122	35.8306
527.175	34.288
527.227	38.8871
527.279	29.5451
527.331	38.1617
527.384	39.0825
527.436	38.3244
527.488	34.2657
527.54	33.54
527.593	34.1112
527.645	33.669
527.697	32.5096
527.749	35.9529
527.802	35.8795
527.854	34.9153
527.906	33.4097
527.958	34.3317
528.011	32.1621
528.063	36.5499
528.115	32.5664
528.167	33.7952
528.219	34.1917
528.272	34.2809
528.324	34.3903
528.376	33.7102
528.428	30.478
528.481	32.8365
528.533	33.3397
528.585	34.5538
528.637	32.9888
528.69	36.6933
528.742	38.2105
528.794	32.4516
528.846	32.1212
528.898	34.2736
528.951	34.128
529.003	35.4454
529.055	36.4968
529.107	36.2389
529.16	35.6412
529.212	33.1321
529.264	35.3981
529.316	36.5736
529.369	37.7678
529.421	35.0125
529.473	38.1931
529.525	34.3612
529.577	37.0042
529.63	32.9746
529.682	34.1521
529.734	34.8184
529.786	36.5577
529.839	34.9637
529.891	36.4027
529.943	35.88
529.995	38.3155
530.047	39.1625
530.1	37.2655
530.152	35.4826
530.204	37.5813
530.256	35.8876
530.308	37.3012
530.361	37.1099
530.413	40.4548
530.465	37.7289
530.517	38.8543
530.57	34.5051
530.622	31.4323
530.674	32.2102
530.726	38.8666
530.778	35.8665
530.831	33.6884
530.883	38.1562
530.935	37.4695
530.987	32.9637
531.039	35.2555
531.092	31.7923
531.144	36.834
531.196	33.9993
531.248	35.5208
531.3	36.1284
531.353	36.0843
531.405	36.0171
531.457	32.7102
531.509	34.4935
531.561	37.7785
531.614	32.4632
531.666	34.3812
531.718	33.1368
531.77	35.0906
531.822	36.7449
531.875	32.8856
531.927	35.346
531.979	37.8336
532.031	34.8096
532.083	37.7286
532.136	33.2213
532.188	33.6599
532.24	35.931
532.292	38.1359
532.344	32.3253
532.397	39.1049
532.449	33.1488
532.501	36.3757
532.553	37.4293
532.605	35.1853
532.658	33.0659
532.71	27.9482
532.762	29.9011
532.814	34.0355
532.866	33.6837
532.919	38.3173
532.971	32.7812
533.023	38.02
533.075	35.9589
533.127	35.7929
533.179	35.045
533.232	38.2358
533.284	37.9832
533.336	37.3128
533.388	37.5024
533.44	35.5444
533.493	35.6467
533.545	38.8945
533.597	38.8083
533.649	39.9102
533.701	40.4719
533.753	38.2672
533.806	37.7883
533.858	39.367
533.91	39.3659
533.962	42.2482
534.014	39.5489
534.067	43.2855
534.119	40.7505
534.171	40.4349
534.223	44.4216
534.275	47.7675
534.327	47.3668
534.38	47.3478
534.432	46.1549
534.484	47.3545
534.536	47.7617
534.588	48.2521
534.641	50.6726
534.693	52.2169
534.745	47.9733
534.797	54.022
534.849	52.4714
534.901	53.8338
534.953	50.9115
535.006	50.4562
535.058	57.5525
535.11	61.6464
535.162	59.839
535.214	56.9588
535.267	53.2382
535.319	53.7776
535.371	54.2205
535.423	52.35
535.475	52.4745
535.527	51.2044
535.58	43.5229
535.632	51.5322
535.684	49.7771
535.736	53.5968
535.788	45.7365
535.84	47.2049
535.892	47.7911
535.945	48.7573
535.997	47.975
536.049	44.2998
536.101	44.7577
536.153	42.2101
536.205	38.6995
536.258	42.3348
536.31	47.8518
536.362	49.716
536.414	41.4321
536.466	44.4094
536.518	42.5537
536.57	44.3821
536.623	45.4404
536.675	45.7096
536.727	38.9888
536.779	38.3104
536.831	41.8171
536.883	43.9869
536.936	40.9251
536.988	41.784
537.04	42.1834
537.092	38.6432
537.144	45.9105
537.196	47.6302
537.248	45.1971
537.301	44.1709
537.353	41.2573
537.405	40.6685
537.457	43.3773
537.509	36.38
537.561	41.5574
537.613	44.4868
537.666	39.1607
537.718	45.702
537.77	42.2628
537.778	40.3353
537.831	39.0592
537.883	44.4505
537.935	42.9204
537.987	40.9046
538.04	41.2574
538.092	38.2549
538.144	44.9695
538.196	39.515
538.249	39.7041
538.301	39.7442
538.353	37.7444
538.405	39.7787
538.457	37.8243
538.51	34.1709
538.562	36.449
538.614	39.8141
538.666	40.6765
538.719	38.4717
538.771	40.3322
538.823	45.699
538.875	39.0838
538.927	43.3569
538.98	39.9132
539.032	38.3402
539.084	43.9357
539.136	41.2002
539.189	36.9413
539.241	46.3607
539.293	41.4445
539.345	39.5575
539.397	41.2538
539.45	47.0046
539.502	39.0041
539.554	42.2126
539.606	42.7615
539.659	43.271
539.711	43.2594
539.763	37.8895
539.815	41.6127
539.867	45.443
539.92	35.4633
539.972	40.1228
540.024	40.4295
540.076	41.2361
540.128	40.023
540.181	36.3907
540.233	40.7189
540.285	44.5994
540.337	44.5863
540.39	39.781
540.442	39.0095
540.494	46.3901
540.546	40.0071
540.598	44.6562
540.651	39.8738
540.703	44.344
540.755	41.7427
540.807	37.5185
540.859	41.2087
540.912	41.2202
540.964	40.7243
541.016	39.9626
541.068	46.0131
541.12	44.2297
541.173	38.9625
541.225	43.8224
541.277	40.5648
541.329	44.0201
541.381	39.938
541.434	39.6023
541.486	45.2319
541.538	46.7377
541.59	42.0171
541.642	42.0328
541.695	41.6412
541.747	40.2049
541.799	41.1901
541.851	41.1351
541.903	45.9125
541.956	44.6057
542.008	45.8048
542.06	42.2436
542.112	43.9658
542.164	40.4915
542.217	47.5896
542.269	44.8486
542.321	50.6877
542.373	44.6206
542.425	41.8004
542.478	44.1506
542.53	43.312
542.582	43.409
542.634	40.8635
542.686	44.3807
542.738	46.5273
542.791	46.4008
542.843	40.2377
542.895	43.4225
542.947	42.7236
542.999	41.5253
543.052	43.4396
543.104	43.1694
543.156	47.9087
543.208	42.926
543.26	41.1542
543.313	41.543
543.365	42.7952
543.417	42.1116
543.469	45.3621
543.521	42.4114
543.573	50.5772
543.626	49.4043
543.678	43.9721
543.73	41.65
543.782	44.6597
543.834	44.7417
543.886	44.2234
543.939	43.7205
543.991	47.658
544.043	47.5053
544.095	47.1868
544.147	46.0164
544.2	53.6145
544.252	47.6796
544.304	44.1526
544.356	47.9422
544.408	49.4468
544.46	47.9104
544.513	46.3524
544.565	45.7994
544.617	49.354
544.669	47.5244
544.721	46.7564
544.773	42.8234
544.826	49.3965
544.878	46.7759
544.93	48.8823
544.982	47.0181
545.034	50.4842
545.086	45.5601
545.139	47.3431
545.191	46.7969
545.243	46.3181
545.295	49.9868
545.347	43.4068
545.399	49.9611
545.452	50.5794
545.504	46.9371
545.556	48.2763
545.608	50.7844
545.66	43.3456
545.712	44.2933
545.765	50.8751
545.817	44.6782
545.869	51.419
545.921	45.4086
545.973	46.822
546.025	44.7161
546.077	47.3223
546.13	44.5976
546.182	49.7126
546.234	48.8296
546.286	51.3021
546.338	52.1854
546.39	47.9
546.443	48.5696
546.495	46.168
546.547	49.554
546.599	49.3074
546.651	51.5116
546.703	48.8277
546.755	48.7612
546.808	47.6382
546.86	50.5437
546.912	53.3969
546.964	51.1108
547.016	52.9502
547.068	57.5137
547.12	52.487
547.173	50.8237
547.225	51.4955
547.277	55.6649
547.329	50.1398
547.381	47.423
547.433	51.4557
547.485	55.3542
547.538	53.4589
547.59	50.0938
547.642	53.3824
547.694	54.7316
547.746	52.9573
547.798	55.3631
547.85	50.8301
547.903	52.0256
547.955	49.3729
548.007	50.3832
548.059	49.6269
548.111	55.3684
548.163	51.6881
548.215	55.0769
548.268	56.8055
548.32	54.642
548.372	51.9562
548.424	51.0583
548.476	55.1907
548.528	61.2108
548.58	57.6462
548.633	53.5453
548.685	47.6275
548.737	53.6359
548.789	55.5705
548.841	54.2564
548.893	51.9713
548.945	58.5736
548.997	50.551
549.049	49.6982
549.102	55.0336
549.154	61.1995
549.206	57.9736
549.258	55.0379
549.31	60.5597
549.362	60.5991
549.414	58.2425
549.467	57.0315
549.519	53.545
549.571	60.2073
549.623	58.9383
549.675	54.1139
549.727	59.9
549.779	57.8066
549.831	57.2574
549.883	58.6882
549.936	60.0267
549.988	60.7217
550.04	61.3457
550.092	60.8798
550.144	60.1776
550.196	64.4752
550.248	58.4692
550.3	57.723
550.353	61.3853
550.405	67.3131
550.457	67.8478
550.509	65.3555
550.561	68.526
550.613	68.8887
550.665	66.1387
550.717	70.4174
550.769	74.3097
550.822	75.6347
550.874	65.8403
550.926	72.5842
550.978	75.5203
551.03	81.897
551.082	73.9068
551.134	74.8827
551.186	79.246
551.238	77.5006
551.291	83.7519
551.343	79.3055
551.395	87.9846
551.447	95.9277
551.499	89.5896
551.551	90.76
551.603	99.3975
551.655	102.913
551.707	105.089
551.759	106.109
551.812	123.863
551.864	131.883
551.916	138.183
551.968	145.515
552.02	167.979
552.072	174.604
552.124	190.74
552.176	225.013
552.228	266.272
552.28	318.92
552.332	426.418
552.385	642.106
552.437	1283.3
552.489	2780.67
552.541	5567.67
552.593	10423.5
552.645	18548.7
552.697	21921.3
552.749	14919.2
552.801	7094.66
552.853	2759.68
552.905	1109.58
552.958	602.081
553.01	413.01
553.062	316.984
553.114	254.139
553.166	213.378
553.218	188.224
553.27	170.864
553.322	149.108
553.374	133.989
553.426	124.056
553.478	117.074
553.531	107.155
553.583	95.4324
553.635	99.1242
553.687	98.689
553.739	91.9221
553.791	90.8167
553.843	92.8916
553.895	89.0631
553.947	83.3191
553.999	83.9964
554.051	81.4715
554.103	85.0931
554.155	80.6571
554.208	75.9833
554.26	75.6125
554.312	82.5825
554.364	85.7294
554.416	76.0192
554.468	74.6984
554.52	76.0409
554.572	74.2455
554.624	70.5329
554.676	69.0053
554.728	66.6405
554.78	69.4165
554.832	72.0109
554.884	68.8726
554.937	74.3808
554.989	75.221
555.041	74.8326
555.093	74.0491
555.145	76.1287
555.197	68.7661
555.249	66.0185
555.301	71.0999
555.353	72.3236
555.405	70.7873
555.457	69.9633
555.509	73.1695
555.529	75.0772
555.582	71.0144
555.634	73.8921
555.686	73.033
555.738	72.1563
555.79	77.8119
555.842	64.3861
555.895	68.0166
555.947	74.8778
555.999	70.7956
556.051	66.9771
556.103	71.1231
556.155	74.9194
556.207	75.1026
556.26	65.6314
556.312	73.0701
556.364	78.8423
556.416	80.3092
556.468	67.2204
556.52	73.9747
556.573	73.0919
556.625	72.1791
556.677	66.4303
556.729	77.4789
556.781	73.9582
556.833	81.1698
556.885	73.6861
556.938	73.6324
556.99	71.69
557.042	80.563
557.094	65.0966
557.146	78.242
557.198	79.2897
557.25	70.6856
557.302	81.6199
557.355	73.9792
557.407	72.9275
557.459	73.8809
557.511	70.6916
557.563	77.8012
557.615	74.7718
557.667	77.8081
557.72	71.3248
557.772	78.4457
557.824	78.7117
557.876	70.9597
557.928	68.7521
557.98	83.0292
558.032	74.6576
558.085	72.2025
558.137	78.0161
558.189	82.0707
558.241	80.4403
558.293	77.4119
558.345	71.9857
558.397	84.8975
558.449	78.2285
558.502	75.9872
558.554	70.1471
558.606	79.3722
558.658	79.167
558.71	73.399
558.762	79.4276
558.814	78.8336
558.866	83.4587
558.919	77.7815
558.971	76.8082
559.023	78.2842
559.075	83.327
559.127	76.3238
559.179	72.2026
559.231	87.389
559.283	86.5422
559.336	78.5871
559.388	81.9739
559.44	82.6649
559.492	78.9462
559.544	75.2671
559.596	73.2906
559.648	89.2862
559.7	84.8199
559.753	82.086
559.805	77.2029
559.857	82.6714
559.909	83.1783
559.961	85.7659
560.013	78.6054
560.065	82.4056
560.117	79.503
560.169	85.3593
560.222	76.9629
560.274	86.161
560.326	84.5924
560.378	79.0904
560.43	84.3632
560.482	85.0388
560.534	91.6605
560.586	84.0143
560.638	78.8911
560.69	86.2669
560.743	84.3228
560.795	79.2194
560.847	81.51
560.899	89.5913
560.951	87.5943
561.003	81.8222
561.055	87.4899
561.107	97.9879
561.159	85.3151
561.212	81.3926
561.264	83.7558
561.316	86.6608
561.368	88.9602
561.42	86.4109
561.472	82.6049
561.524	96.8176
561.576	89.2433
561.628	93.0615
561.68	95.9124
561.733	95.295
561.785	87.0252
561.837	85.112
561.889	90.4946
561.941	95.2306
561.993	93.3026
562.045	86.7054
562.097	96.0802
562.149	95.3158
562.201	92.5291
562.253	90.5387
562.306	93.613
562.358	100.034
562.41	95.7541
562.462	88.5527
562.514	90.8473
562.566	87.639
562.618	101.351
562.67	97.3911
562.722	96.4701
562.774	97.2538
562.826	96.3584
562.879	97.4035
562.931	97.224
562.983	98.6277
563.035	99.8039
563.087	91.8531
563.139	94.4934
563.191	103.221
563.243	97.266
563.295	97.9079
563.347	101.757
563.399	98.3383
563.451	99.5343
563.504	101.825
563.556	102.052
563.608	102.773
563.66	97.5536
563.712	100.167
563.764	105.58
563.816	108.428
563.868	107.426
563.92	102.721
563.972	112.344
564.024	108.713
564.076	102.868
564.128	106.365
564.181	110.425
564.233	107.562
564.285	104.998
564.337	102.47
564.389	106.419
564.441	105.215
564.493	103.79
564.545	102.987
564.597	108.498
564.649	107.14
564.701	110.146
564.753	100.847
564.805	106.035
564.857	111.227
564.909	109.843
564.962	113.625
565.014	109.075
565.066	105.003
565.118	100.482
565.17	108.212
565.222	111.485
565.274	113.548
565.326	106.218
565.378	109.548
565.43	110.959
565.482	111.14
565.534	110.802
565.586	114.867
565.638	114.405
565.69	114.398
565.742	116.938
565.795	117.264
565.847	117.788
565.899	110.317
565.951	111.022
566.003	112.961
566.055	115.719
566.107	120.215
566.159	115.046
566.211	119.882
566.263	122.863
566.315	121.526
566.367	118.598
566.419	115.152
566.471	117.7
566.523	121.352
566.575	118.747
566.627	119.414
566.679	117.33
566.732	120.651
566.784	111.362
566.836	117.146
566.888	123.709
566.94	120.384
566.992	121.244
567.044	127.605
567.096	125.044
567.148	120.337
567.2	120.896
567.252	129.882
567.304	125.65
567.356	125.329
567.408	120.637
567.46	119.389
567.512	122.556
567.564	126.572
567.616	128.744
567.668	132.531
567.72	129.838
567.772	126.174
567.824	129.928
567.876	132.527
567.928	130.392
567.98	130.428
568.033	123.223
568.085	128.627
568.137	129.123
568.189	128.863
568.241	133.677
568.293	134.266
568.345	129.84
568.397	125.293
568.449	128.446
568.501	129.593
568.553	128.643
568.605	132.289
568.657	136.325
568.709	141.319
568.761	137.163
568.813	131.421
568.865	131.819
568.917	134.728
568.969	133.614
569.021	137.349
569.073	140.844
569.125	137.072
569.177	137.629
569.229	137.39
569.281	135.216
569.333	142.614
569.385	144.78
569.437	138.054
569.489	136.391
569.541	142.017
569.593	141.396
569.645	140.347
569.697	144.33
569.749	140.294
569.801	146.125
569.853	148.095
569.905	142.885
569.957	146.39
570.009	148.465
570.061	142.707
570.113	146.215
570.165	149.603
570.217	150.757
570.269	153.935
570.321	155.334
570.374	151.6
570.426	152.541
570.478	155.631
570.53	155.754
570.582	154.382
570.634	154.016
570.686	153.481
570.738	158.127
570.79	167.768
570.842	162.314
570.894	155.58
570.946	157.289
570.998	162.621
571.05	164.434
571.102	164.395
571.154	165.306
571.206	169.072
571.258	169.264
571.31	169.912
571.362	171.372
571.414	175.935
571.466	174.3
571.518	174.053
571.57	169.704
571.622	171.531
571.674	171.676
571.726	172.65
571.778	177.649
571.83	182.782
571.882	181.23
571.934	186.596
571.986	186.663
572.038	190.522
572.09	186.875
572.142	182.809
572.194	181.742
572.246	196.795
572.298	199.354
572.349	194.739
572.401	203.311
572.453	202.446
572.505	201.318
572.557	206.273
572.609	211.155
572.661	206.208
572.713	210.958
572.765	209.328
572.817	216.653
572.869	221.203
572.921	217.21
572.973	216.128
573.025	222.827
573.077	222.13
573.129	227.873
573.181	237.547
573.212	232.805
573.264	237.441
573.316	241.694
573.368	249.2
573.421	247.803
573.473	257.488
573.525	258.382
573.577	249.544
573.629	258.495
573.681	274.632
573.733	272.06
573.785	273.359
573.837	277.226
573.889	279.528
573.941	277.568
573.993	284.662
574.045	284.73
574.097	293.5
574.15	305.016
574.202	308.043
574.254	311.576
574.306	316.088
574.358	323.786
574.41	316.45
574.462	317.529
574.514	336.844
574.566	340.325
574.618	341.946
574.67	342.81
574.722	351.841
574.774	358.859
574.826	360.117
574.878	370.622
574.931	363.89
574.983	381.866
575.035	389.249
575.087	384.225
575.139	397.45
575.191	392.291
575.243	404.615
575.295	414.726
575.347	415.18
575.399	417.477
575.451	419.888
575.503	405.487
575.555	417.444
575.607	426.005
575.659	423.839
575.711	423.1
575.763	417.671
575.815	417.749
575.868	429.514
575.92	425.82
575.972	420.459
576.024	417.235
576.076	422.059
576.128	428.438
576.18	416.686
576.232	414.088
576.284	410.741
576.336	406.42
576.388	402.418
576.44	407.563
576.492	403.371
576.544	393.666
576.596	401.637
576.648	398.414
576.7	400.694
576.752	387.614
576.804	378.487
576.856	372.917
576.909	382.379
576.961	368.132
577.013	369.457
577.065	366.8
577.117	361.991
577.169	362.962
577.221	364.536
577.273	359.852
577.325	349.308
577.377	337.481
577.429	338.37
577.481	334.688
577.533	320.64
577.585	327.134
577.637	333.225
577.689	319.153
577.741	315.162
577.793	315.29
577.845	303.992
577.897	310.368
577.949	312.72
578.001	308.011
578.053	304.487
578.105	303.486
578.157	297.555
578.209	301.363
578.261	311.099
578.313	300.338
578.365	298.035
578.417	288.084
578.469	289.76
578.522	291.837
578.574	294.413
578.626	287.463
578.678	287.078
578.73	286.679
578.782	282.517
578.834	286.88
578.886	288.764
578.938	287.734
578.99	282.906
579.042	293.257
579.094	284.409
579.146	281.299
579.198	284.131
579.25	282.21
579.302	278.689
579.354	275.33
579.406	290.106
579.458	287.981
579.51	283.517
579.562	287.769
579.614	287.524
579.666	295.251
579.718	286.545
579.77	281.912
579.822	287.695
579.874	301.069
