#Acq. time (s)=	2
#Accumulations=	3
#Range (nm)=	520...900
#Windows=	24
#Auto scanning=	On
#Autofocus=	Off
#AutoExposure=	Off
#Spike filter=	Multiple accum.
#Delay time (s)=	0
#Binning=	1
#Readout mode=	Signal
#DeNoise=	Off
#ICS correction=	Off
#Dark correction=	Off
#Inst. Process=	Off
#Detector temperature (°C)=	-59.98
#Instrument=	LabRAM HR Evol
#Detector=	Syncerity OE
#Objective=	x50_VIS
#Grating=	600 (500nm)
#ND Filter=	10%
#Laser=	514nm_Edge
#Hole=	199.981
#Range=	Auto
#StageXY=	Marzhauser
#StageZ=	Marzhauser
#X (µm)=	-5866
#Y (µm)=	817.4
#Z (µm)=	-25.2
#Full time(mm:ss)=	3:03
#Project=	
#Sample=	
#Site=	
#Title=	M3_140224
#Remark=	
#Date=	19.02.2024 14:16
#Acquired=	19.02.2024 14:16:38
520.013	26.0636
520.065	28.0854
520.117	28.5043
520.17	27.8547
520.222	24.9984
520.274	31.6663
520.327	26.7211
520.379	21.2688
520.431	27.8197
520.483	26.0761
520.536	23.2673
520.588	20.7622
520.64	24.3955
520.693	31.0951
520.745	27.3286
520.797	25.7677
520.85	19.836
520.902	27.9674
520.954	26.5021
521.007	26.9075
521.059	27.327
521.111	28.1664
521.163	25.7156
521.216	23.5306
521.268	28.1475
521.32	23.0626
521.373	27.8696
521.425	26.4069
521.477	25.5649
521.529	29.2192
521.582	29.0405
521.634	25.7481
521.686	23.7095
521.739	22.6667
521.791	24.3086
521.843	25.0868
521.896	21.7542
521.948	28.2445
522	27.9457
522.052	26.8296
522.105	26.8866
522.157	28.885
522.209	26.9435
522.262	23.6094
522.314	27.6945
522.366	29.8531
522.418	23.9679
522.471	26.9355
522.523	24.2113
522.575	28.7282
522.628	25.7529
522.68	25.6888
522.732	27.1292
522.784	30.0466
522.837	27.4921
522.889	26.4282
522.941	26.2608
522.994	28.4232
523.046	27.8486
523.098	26.4515
523.15	26.9172
523.203	26.6749
523.255	26.8878
523.307	26.4505
523.36	26.6689
523.412	31.402
523.464	25.9301
523.516	25.2663
523.569	28.8956
523.621	31.7303
523.673	25.749
523.726	25.4482
523.778	30.7126
523.83	27.7801
523.882	27.8309
523.935	28.2356
523.987	27.15
524.039	29.0062
524.091	28.8522
524.144	23.0801
524.196	26.058
524.248	28.5343
524.301	28.3543
524.353	25.6503
524.405	30.2856
524.457	27.4451
524.51	23.7239
524.562	25.3671
524.614	34.4946
524.666	30.226
524.719	25.8483
524.771	27.655
524.823	24.5343
524.875	28.657
524.928	26.9627
524.98	26.8407
525.032	30.3682
525.085	30.4913
525.137	27.8374
525.189	21.6869
525.241	26.285
525.294	30.8332
525.346	27.8283
525.398	30.2062
525.45	27.5068
525.503	28.3636
525.555	24.786
525.607	24.095
525.659	27.1633
525.712	27.2212
525.764	27.0092
525.816	28.1826
525.868	29.8545
525.921	25.5274
525.973	24
526.025	27.0805
526.077	29.1918
526.13	25.5964
526.182	26.4931
526.234	26.7863
526.286	30.5072
526.339	25.0544
526.391	28.0495
526.443	27.1989
526.495	27.437
526.548	25.497
526.6	27.0168
526.652	27.9258
526.704	29.812
526.757	26.5476
526.809	25.8732
526.861	27.3333
526.913	28.8718
526.966	26.1382
527.018	27.7809
527.07	26.8225
527.122	30.7824
527.175	26.4096
527.227	24.7968
527.279	27.006
527.331	29.8512
527.384	27.6963
527.436	28.0313
527.488	29.6985
527.54	31.0741
527.593	24.8118
527.645	24.6612
527.697	28.2111
527.749	31.7492
527.802	26.1161
527.854	28.7832
527.906	23.16
527.958	28.3431
528.011	27.2611
528.063	27.2736
528.115	27.6746
528.167	29.9882
528.219	25.6317
528.272	29.8845
528.324	29.1492
528.376	27.4266
528.428	27.9067
528.481	27.0636
528.533	29.4891
528.585	30.396
528.637	25.6912
528.69	24.5973
528.742	21.4398
528.794	27.7838
528.846	24.4968
528.898	27.7745
528.951	26.625
529.003	27.3762
529.055	26.49
529.107	29.7087
529.16	26.5995
529.212	26.2397
529.264	26.7986
529.316	23.9898
529.369	29.5891
529.421	27.4426
529.473	27.0645
529.525	24.436
529.577	24.9993
529.63	26.0033
529.682	25.799
529.734	22.8577
529.786	27.3554
529.839	29.077
529.891	29.8495
529.943	25.2383
529.995	28.2951
530.047	28.1991
530.1	32.0538
530.152	28.8495
530.204	28.5424
530.256	26.6846
530.308	30.4319
530.361	27.3654
530.413	27.9611
530.465	32.0816
530.517	31.4936
530.57	27.1239
530.622	27.826
530.674	28.6972
530.726	25.7452
530.778	25.9015
530.831	28.8201
530.883	26.3863
530.935	27.1438
530.987	30.0799
531.039	30.3203
531.092	28.635
531.144	27.6663
531.196	24.7731
531.248	25.3019
531.3	26.5497
531.353	27.6044
531.405	26.0528
531.457	26.6163
531.509	30.1181
531.561	26.7866
531.614	24.962
531.666	27.6074
531.718	25.0829
531.77	31.1894
531.822	28.6056
531.875	27.8338
531.927	28.3963
531.979	28.9247
532.031	30.5929
532.083	30.9237
532.136	24.5619
532.188	29.4117
532.24	25.8277
532.292	31.139
532.344	28.5557
532.397	28.1599
532.449	27.569
532.501	31.5496
532.553	30.7087
532.605	30.3073
532.658	28.1162
532.71	26.6694
532.762	27.2538
532.814	28.1839
532.866	28.468
532.919	31.3681
532.971	27.5924
533.023	27.5657
533.075	27.5058
533.127	29.2262
533.179	30.6164
533.232	26.9396
533.284	26.4735
533.336	29.6413
533.388	30.5049
533.44	27.2401
533.493	29.7039
533.545	28.098
533.597	28.6624
533.649	26.689
533.701	30.6254
533.753	31.8878
533.806	29.9703
533.858	27.2316
533.91	24.3238
533.962	32.0206
534.014	28.2791
534.067	24.9265
534.119	26.6869
534.171	32.753
534.223	28.0598
534.275	32.4649
534.327	34.7511
534.38	30.5274
534.432	36.2748
534.484	31.98
534.536	31.9217
534.588	33.6241
534.641	34.0706
534.693	34.6929
534.745	30.5441
534.797	33.3957
534.849	33.0538
534.901	33.4826
534.953	36.5712
535.006	36.5414
535.058	35.291
535.11	30.0028
535.162	32.6044
535.214	30.4666
535.267	35.1762
535.319	32.7562
535.371	36.2545
535.423	31.319
535.475	32.9211
535.527	32.019
535.58	31.978
535.632	34.1407
535.684	36.7847
535.736	29.79
535.788	27.6235
535.84	32.2998
535.892	33.0051
535.945	25.3471
535.997	37.9904
536.049	29.7759
536.101	32.8481
536.153	28.5072
536.205	30.65
536.258	29.7353
536.31	26.6846
536.362	29.6364
536.414	34.009
536.466	27.6404
536.518	26.7245
536.57	21.5325
536.623	32.1758
536.675	28.2965
536.727	31.3337
536.779	30.5078
536.831	32.6162
536.883	31.1521
536.936	27.7924
536.988	29.123
537.04	29.2261
537.092	31.5178
537.144	29.5188
537.196	29.5457
537.248	33.6187
537.301	29.5513
537.353	29.9637
537.405	24.2719
537.457	29.6896
537.509	29.2771
537.561	32.0083
537.613	27.8994
537.666	32.4896
537.718	27.9065
537.77	27.8913
537.778	29.1901
537.831	25.7115
537.883	35.7665
537.935	32.1236
537.987	27.6456
538.04	31.1253
538.092	29.7082
538.144	27.5575
538.196	32.332
538.249	32.4834
538.301	31.0956
538.353	33.1383
538.405	26.8983
538.457	26.2959
538.51	30.9279
538.562	30.3515
538.614	26.1394
538.666	22.7305
538.719	32.1462
538.771	25.9764
538.823	27.1883
538.875	30.9865
538.927	30.0789
538.98	30.5618
539.032	27.853
539.084	30.8669
539.136	26.1234
539.189	30.0323
539.241	24.0821
539.293	24.4684
539.345	30.0226
539.397	26.8296
539.45	24.0015
539.502	33.2979
539.554	27.6711
539.606	34.3235
539.659	27.2194
539.711	26.9599
539.763	30.4076
539.815	31.3087
539.867	26.9005
539.92	33.6066
539.972	29.5678
540.024	31.326
540.076	28.6514
540.128	30.7538
540.181	28.1639
540.233	30.4939
540.285	30.8628
540.337	30.2919
540.39	27.0186
540.442	27.6495
540.494	26.3628
540.546	31.0345
540.598	28.9486
540.651	30.0975
540.703	32.1348
540.755	31.9711
540.807	29.3936
540.859	28.9898
540.912	25.5173
540.964	33.4062
541.016	34.1031
541.068	33.4304
541.12	29.7376
541.173	31.0404
541.225	24.7002
541.277	30.302
541.329	23.4704
541.381	32.7908
541.434	29.6295
541.486	30.9421
541.538	27.0956
541.59	31.262
541.642	27.5751
541.695	27.5359
541.747	26.9705
541.799	27.0572
541.851	32.995
541.903	29.8584
541.956	30.1299
542.008	31.6978
542.06	30.2496
542.112	30.0112
542.164	25.7131
542.217	31.2433
542.269	31.6444
542.321	30.8595
542.373	29.9236
542.425	30.7778
542.478	32.492
542.53	23.7984
542.582	30.5507
542.634	26.8194
542.686	31.7514
542.738	28.8194
542.791	28.5052
542.843	28.8997
542.895	33.5461
542.947	31.3865
542.999	32.7026
543.052	30.2487
543.104	33.1058
543.156	30.3206
543.208	33.0818
543.26	30.5564
543.313	35.5075
543.365	29.4213
543.417	32.687
543.469	26.7559
543.521	26.031
543.573	31.1525
543.626	28.7738
543.678	38.0337
543.73	31.6676
543.782	28.6662
543.834	27.8185
543.886	29.6391
543.939	29.6563
543.991	32.0503
544.043	30.7734
544.095	37.4934
544.147	33.0766
544.2	32.2787
544.252	32.866
544.304	29.3703
544.356	35.9356
544.408	31.564
544.46	30.7499
544.513	33.5538
544.565	33.6824
544.617	31.074
544.669	27.8886
544.721	27.9832
544.773	34.0584
544.826	27.0715
544.878	36.4553
544.93	29.873
544.982	28.4258
545.034	27.3681
545.086	33.9638
545.139	30.0944
545.191	30.3798
545.243	33.0793
545.295	30.8908
545.347	33.6562
545.399	32.0001
545.452	34.5109
545.504	33.4358
545.556	29.4914
545.608	29.7019
545.66	31.258
545.712	30.9304
545.765	32.2208
545.817	31.1114
545.869	33.1
545.921	34.4173
545.973	32.6667
546.025	31.0024
546.077	31.9765
546.13	32.0858
546.182	35.0148
546.234	30.2364
546.286	29.7817
546.338	33.387
546.39	32.4382
546.443	30.97
546.495	31.7134
546.547	33.4265
546.599	35.3023
546.651	35.8821
546.703	30.9701
546.755	30.9707
546.808	32.0301
546.86	32.8227
546.912	32.9794
546.964	28.6952
547.016	31.8184
547.068	29.6868
547.12	31.669
547.173	29.619
547.225	38.0353
547.277	34.4286
547.329	35.0776
547.381	31.6312
547.433	33.5143
547.485	33.2696
547.538	33.771
547.59	29.4043
547.642	35.1076
547.694	32.9407
547.746	32.3988
547.798	33.7969
547.85	32.3153
547.903	33.7208
547.955	36.8257
548.007	34.5163
548.059	34.093
548.111	30.6308
548.163	33.4893
548.215	35.7187
548.268	32.3768
548.32	33.9756
548.372	32.8592
548.424	36.408
548.476	34.0045
548.528	26.9324
548.58	36.5269
548.633	33.7395
548.685	31.8396
548.737	34.7115
548.789	31.5987
548.841	32.6971
548.893	31.907
548.945	32.7613
548.997	38.1661
549.049	32.6319
549.102	34.8998
549.154	34.4411
549.206	29.4478
549.258	31.7686
549.31	35.2702
549.362	32.7583
549.414	29.4832
549.467	33.4273
549.519	32.0864
549.571	35.6337
549.623	36.4973
549.675	39.7755
549.727	34.21
549.779	30.5298
549.831	34.8681
549.883	35.4727
549.936	38.9796
549.988	36.7291
550.04	31.2555
550.092	35.3149
550.144	34.6991
550.196	34.5453
550.248	37.6278
550.3	34.3714
550.353	34.2602
550.405	34.5131
550.457	32.6978
550.509	35.8927
550.561	36.0007
550.613	36.474
550.665	37.0356
550.717	38.7705
550.769	36.1269
550.822	37.5403
550.874	38.4899
550.926	40.7713
550.978	35.1798
551.03	37.8198
551.082	43.6228
551.134	46.0567
551.186	43.4559
551.238	46.6152
551.291	45.8709
551.343	48.4399
551.395	47.068
551.447	46.3646
551.499	48.7354
551.551	50.4711
551.603	49.8816
551.655	51.7741
551.707	52.2131
551.759	57.8381
551.812	62.8092
551.864	63.6491
551.916	66.7151
551.968	71.3372
552.02	74.6615
552.072	82.1285
552.124	83.5773
552.176	90.0691
552.228	111.583
552.28	132.335
552.332	172.25
552.385	272.817
552.437	529.473
552.489	1094.61
552.541	2020.97
552.593	3602.48
552.645	6483.2
552.697	8415.14
552.749	6135.02
552.801	3032.92
552.853	1190.25
552.905	483.33
552.958	257.019
553.01	177.545
553.062	136.466
553.114	105.667
553.166	94.0446
553.218	87.206
553.27	77.3433
553.322	68.6461
553.374	63.8705
553.426	55.8928
553.478	54.7471
553.531	48.9724
553.583	51.4317
553.635	55.1598
553.687	50.9634
553.739	44.9261
553.791	42.6004
553.843	43.8343
553.895	44.0966
553.947	43.1737
553.999	45.2076
554.051	46.4923
554.103	45.0881
554.155	42.176
554.208	38.9952
554.26	37.6648
554.312	39.4051
554.364	42.1312
554.416	38.9044
554.468	41.4096
554.52	40.2009
554.572	35.5581
554.624	38.1649
554.676	39.5487
554.728	37.7177
554.78	38.2245
554.832	38.328
554.884	39.0764
554.937	39.3563
554.989	39.5936
555.041	36.9643
555.093	38.2209
555.145	38.1374
555.197	39.487
555.249	39.8061
555.301	40.1821
555.353	39.7963
555.405	37.2508
555.457	39.5235
555.509	39.6596
555.529	38.1055
555.582	43.8717
555.634	40.0145
555.686	37.9394
555.738	32.2626
555.79	38.0168
555.842	38.938
555.895	38.0385
555.947	34.2478
555.999	40.9264
556.051	33.1067
556.103	39.9841
556.155	37.3637
556.207	39.8856
556.26	36.2056
556.312	40.8616
556.364	38.3592
556.416	41.7524
556.468	42.2924
556.52	37.2015
556.573	38.0323
556.625	42.4161
556.677	40.7046
556.729	38.2644
556.781	37.9905
556.833	39.7517
556.885	32.9519
556.938	34.8698
556.99	38.1418
557.042	39.7117
557.094	39.0909
557.146	45.0849
557.198	42.5936
557.25	39.8681
557.302	40.7071
557.355	41.594
557.407	39.3211
557.459	33.7082
557.511	38.9555
557.563	35.5073
557.615	40.8332
557.667	41.6512
557.72	39.7298
557.772	39.2746
557.824	43.3155
557.876	38.1256
557.928	38.9489
557.98	38.4199
558.032	43.3089
558.085	40.5586
558.137	43.1575
558.189	38.0031
558.241	42.5388
558.293	33.3207
558.345	37.4937
558.397	41.7123
558.449	40.0536
558.502	42.5094
558.554	40.8916
558.606	41.8768
558.658	41.3342
558.71	41.4412
558.762	39.8789
558.814	36.5589
558.866	39.7177
558.919	42.438
558.971	41.9918
559.023	35.1755
559.075	39.5194
559.127	38.5088
559.179	37.7762
559.231	43.5209
559.283	37.0712
559.336	40.8581
559.388	42.7765
559.44	38.7136
559.492	39.2981
559.544	42.1226
559.596	39.8388
559.648	41.8417
559.7	42.1307
559.753	40.3156
559.805	44.4699
559.857	39.4812
559.909	43.5262
559.961	39.3824
560.013	40.0739
560.065	42.9185
560.117	42.1745
560.169	35.8656
560.222	42.6183
560.274	39.3255
560.326	42.4736
560.378	36.5128
560.43	33.1177
560.482	38.904
560.534	39.9609
560.586	36.9663
560.638	42.5163
560.69	36.5733
560.743	45.3566
560.795	45.765
560.847	40.9046
560.899	34.5379
560.951	40.6124
561.003	43.2805
561.055	45.3433
561.107	44.0788
561.159	43.2285
561.212	43.6162
561.264	45.7278
561.316	45.4558
561.368	40.9001
561.42	41.9547
561.472	42.9982
561.524	41.1507
561.576	42.4953
561.628	38.9231
561.68	46.3551
561.733	46.9576
561.785	45.7134
561.837	44.5696
561.889	45.5366
561.941	44.1599
561.993	44.43
562.045	43.954
562.097	48.1725
562.149	47.9149
562.201	42.3949
562.253	44.5914
562.306	45.6336
562.358	43.1667
562.41	41.5978
562.462	45.7625
562.514	44.1074
562.566	47.0923
562.618	41.606
562.67	43.4981
562.722	43.9014
562.774	43.4605
562.826	46.9302
562.879	46.5455
562.931	44.1618
562.983	43.1893
563.035	45.646
563.087	41.9233
563.139	46.0345
563.191	44.4092
563.243	46.1607
563.295	45.8199
563.347	45.6219
563.399	47.9572
563.451	42.9376
563.504	42.6828
563.556	47.1048
563.608	45.2363
563.66	44.6305
563.712	44.8723
563.764	41.864
563.816	39.5528
563.868	42.9999
563.92	43.9842
563.972	46.8126
564.024	49.3165
564.076	45.2627
564.128	48.1096
564.181	47.8905
564.233	46.9929
564.285	48.8251
564.337	47.1217
564.389	49.1814
564.441	47.6315
564.493	46.5661
564.545	48.7189
564.597	53.2433
564.649	49.6131
564.701	44.1931
564.753	45.0394
564.805	44.3055
564.857	49.0545
564.909	48.7
564.962	46.0128
565.014	44.7561
565.066	46.749
565.118	45.2802
565.17	45.53
565.222	44.515
565.274	45.3192
565.326	48.9746
565.378	46.3576
565.43	48.732
565.482	46.8609
565.534	46.8772
565.586	50.683
565.638	49.3481
565.69	44.8028
565.742	47.7555
565.795	49.8877
565.847	48.1616
565.899	45.988
565.951	44.1183
566.003	49.5462
566.055	49.9792
566.107	47.5665
566.159	48.431
566.211	50.0154
566.263	49.0782
566.315	46.6968
566.367	49.2065
566.419	52.7891
566.471	52.9525
566.523	49.5977
566.575	48.1666
566.627	49.7517
566.679	50.7532
566.732	51.3616
566.784	50.873
566.836	47.8741
566.888	54.1948
566.94	52.1715
566.992	45.9565
567.044	51.0682
567.096	49.2318
567.148	48.1447
567.2	53.2021
567.252	50.1922
567.304	53.0603
567.356	52.6605
567.408	51.6591
567.46	54.7861
567.512	52.9445
567.564	50.0906
567.616	52.7126
567.668	49.5395
567.72	48.4343
567.772	50.3279
567.824	54.499
567.876	55.7619
567.928	55.6684
567.98	51.522
568.033	53.4385
568.085	55.3752
568.137	49.6667
568.189	51.6062
568.241	53.4884
568.293	49.2931
568.345	50.6197
568.397	54.6202
568.449	58.2625
568.501	56.5424
568.553	55.354
568.605	50.7693
568.657	51.6469
568.709	55.1192
568.761	59.5422
568.813	57.8969
568.865	55.49
568.917	54.0986
568.969	55.2393
569.021	56.1079
569.073	53.0043
569.125	57.2616
569.177	59.6002
569.229	56.0959
569.281	52.4222
569.333	51.6314
569.385	55.1002
569.437	61.6782
569.489	62.5077
569.541	61.9487
569.593	57.1273
569.645	59.146
569.697	58.3
569.749	59.5334
569.801	61.4989
569.853	60.5341
569.905	60.9687
569.957	66.8083
570.009	66.1716
570.061	64.3399
570.113	65.8912
570.165	62.6776
570.217	62.3791
570.269	69.6218
570.321	67.6237
570.374	65.9497
570.426	60.8598
570.478	64.9412
570.53	64.2488
570.582	62.524
570.634	63.0672
570.686	65.4384
570.738	66.6938
570.79	66.0624
570.842	62.3313
570.894	63.7139
570.946	64.4714
570.998	62.5022
571.05	64.4392
571.102	64.2694
571.154	62.7396
571.206	60.5087
571.258	62.6995
571.31	66.3464
571.362	65.5491
571.414	66.5224
571.466	66.6919
571.518	66.9445
571.57	64.0682
571.622	65.0083
571.674	66.4246
571.726	67.5921
571.778	67.5124
571.83	63.2092
571.882	66.0687
571.934	70.5432
571.986	69.8781
572.038	67.708
572.09	69.5312
572.142	71.0178
572.194	73.8347
572.246	71.3369
572.298	71.0115
572.349	75.5351
572.401	70.8074
572.453	70.4277
572.505	68.6747
572.557	69.6707
572.609	75.118
572.661	72.2099
572.713	73.2634
572.765	82.2434
572.817	72.0784
572.869	75.437
572.921	81.7997
572.973	81.1538
573.025	76.214
573.077	76.2649
573.129	74.6288
573.181	79.5005
573.212	79.5348
573.264	80.0934
573.316	79.2912
573.368	87.1059
573.421	87.8229
573.473	83.864
573.525	76.6452
573.577	84.7605
573.629	90.4325
573.681	84.5099
573.733	90.3086
573.785	91.9878
573.837	91.3935
573.889	86.8739
573.941	92.7197
573.993	101.209
574.045	98.5047
574.097	87.956
574.15	96.9877
574.202	103.146
574.254	98.2317
574.306	103.168
574.358	103.746
574.41	110.498
574.462	103.243
574.514	103.143
574.566	107.666
574.618	107.204
574.67	113.931
574.722	114.781
574.774	106.113
574.826	111.41
574.878	113.255
574.931	115.916
574.983	109.034
575.035	117.505
575.087	115.824
575.139	117.239
575.191	111.695
575.243	119.542
575.295	114.671
575.347	115.678
575.399	109.675
575.451	121.971
575.503	121.929
575.555	111.597
575.607	117.729
575.659	112.335
575.711	119.024
575.763	117.816
575.815	114.941
575.868	111.797
575.92	111.127
575.972	114.758
576.024	107.517
576.076	116.3
576.128	107.123
576.18	98.6695
576.232	107.623
576.284	114.06
576.336	115.21
576.388	118.673
576.44	112.03
576.492	113.81
576.544	113.047
576.596	108.329
576.648	113.493
576.7	109.299
576.752	106.189
576.804	107.021
576.856	106.273
576.909	102.264
576.961	108.483
577.013	103.429
577.065	101.021
577.117	102.159
577.169	106.139
577.221	97.3936
577.273	97.7493
577.325	99.1499
577.377	98.565
577.429	91.5047
577.481	100.973
577.533	98.581
577.585	96.0061
577.637	89.9922
577.689	93.73
577.741	96.2585
577.793	95.2418
577.845	87.5171
577.897	89.7769
577.949	94.8529
578.001	88.941
578.053	89.6585
578.105	90.8379
578.157	91.5501
578.209	89.386
578.261	82.3272
578.313	83.2007
578.365	95.0495
578.417	86.8901
578.469	87.3712
578.522	94.9998
578.574	94.2154
578.626	93.8057
578.678	87.743
578.73	93.1219
578.782	87.1176
578.834	90.0593
578.886	89.8749
578.938	90.1945
578.99	89.9301
579.042	88.1101
579.094	90.5535
579.146	90.4103
579.198	88.5878
579.25	88.4426
579.302	92.6236
579.354	91.6505
579.406	85.1082
579.458	87.0842
579.51	90.5627
579.562	89.7309
579.614	92.4355
579.666	92.0926
579.718	93.1998
579.77	98.3767
579.822	93.4141
579.874	91.6928
