#Acq. time (s)=	2
#Accumulations=	3
#Range (nm)=	520...900
#Windows=	24
#Auto scanning=	On
#Autofocus=	Off
#AutoExposure=	Off
#Spike filter=	Multiple accum.
#Delay time (s)=	0
#Binning=	1
#Readout mode=	Signal
#DeNoise=	Off
#ICS correction=	Off
#Dark correction=	Off
#Inst. Process=	Off
#Detector temperature (°C)=	-59.98
#Instrument=	LabRAM HR Evol
#Detector=	Syncerity OE
#Objective=	x50_VIS
#Grating=	600 (500nm)
#ND Filter=	10%
#Laser=	514nm_Edge
#Hole=	199.981
#Range=	Auto
#StageXY=	Marzhauser
#StageZ=	Marzhauser
#X (µm)=	3020.4
#Y (µm)=	819.6
#Z (µm)=	60.3
#Full time(mm:ss)=	3:03
#Project=	
#Sample=	
#Site=	
#Title=	M4_140224
#Remark=	
#Date=	19.02.2024 14:21
#Acquired=	19.02.2024 14:21:13
520.013	41.9581
520.065	39.345
520.117	39.4957
520.17	37.4616
520.222	39.6308
520.274	41.8976
520.327	36.2455
520.379	37.0964
520.431	37.2471
520.483	40.6713
520.536	37.9922
520.588	37.9946
520.64	38.3496
520.693	39.6903
520.745	37.5524
520.797	39.7056
520.85	40.1576
520.902	37.7816
520.954	43.0493
521.007	43.5868
521.059	39.5663
521.111	35.0753
521.163	41.2053
521.216	43.0149
521.268	40.9639
521.32	37.131
521.373	37.4671
521.425	40.931
521.477	37.2112
521.529	32.8568
521.582	36.9125
521.634	39.9589
521.686	38.7783
521.739	37.2705
521.791	42.3733
521.843	42.2734
521.896	41.3838
521.948	37.3333
522	40.4429
522.052	42.4478
522.105	40.6765
522.157	37.8909
522.209	41.4099
522.262	39.5243
522.314	41.9348
522.366	38.9928
522.418	36.5043
522.471	39.8308
522.523	41.3988
522.575	39.9909
522.628	39.9429
522.68	41.635
522.732	39.357
522.784	42.5037
522.837	42.7554
522.889	44.9242
522.941	41.0985
522.994	33.697
523.046	39.3644
523.098	39.6127
523.15	43.0596
523.203	35.3416
523.255	40.3714
523.307	44.9597
523.36	41.2479
523.412	38.1229
523.464	40.9969
523.516	40.7552
523.569	40.6011
523.621	42.6667
523.673	40.6153
523.726	38.8187
523.778	37.9984
523.83	38.6782
523.882	38.849
523.935	43.6993
523.987	44.6685
524.039	40.086
524.091	42.3619
524.144	40.6704
524.196	42.2639
524.248	40.8493
524.301	40.345
524.353	43.6849
524.405	39.7501
524.457	37.5174
524.51	37.4602
524.562	39.5116
524.614	37.04
524.666	37.1042
524.719	37.6527
524.771	41.7638
524.823	39.271
524.875	38.657
524.928	41.875
524.98	43.4763
525.032	39.0047
525.085	38.9878
525.137	38.8689
525.189	38.4747
525.241	37.005
525.294	40.457
525.346	38.8664
525.398	41.0537
525.45	34.4604
525.503	40.6698
525.555	40.6084
525.607	40.43
525.659	40.3343
525.712	40.075
525.764	42.9215
525.816	43.1624
525.868	35.826
525.921	43.2726
525.973	40.3788
526.025	40.4537
526.077	36.7565
526.13	39.6394
526.182	43.2131
526.234	46.8508
526.286	38.3012
526.339	40.4724
526.391	43.1717
526.443	42.7451
526.495	38.17
526.548	36.6039
526.6	39.6397
526.652	40.8663
526.704	39.0319
526.757	40.9708
526.809	39.7137
526.861	38.4807
526.913	40.586
526.966	40.3875
527.018	43.136
527.07	42.2591
527.122	41.6791
527.175	46.3235
527.227	40.5455
527.279	40.9066
527.331	38.6671
527.384	40.7783
527.436	39.5307
527.488	41.0179
527.54	37.2987
527.593	37.7664
527.645	41.7009
527.697	38.6333
527.749	40.4048
527.802	39.6112
527.854	42.5563
527.906	39.1703
527.958	38.9147
528.011	39.3687
528.063	37.1538
528.115	40.1254
528.167	41.8822
528.219	35.861
528.272	38.1597
528.324	41.9887
528.376	40.857
528.428	41.8113
528.481	42.004
528.533	37.346
528.585	37.4133
528.637	39.5394
528.69	39.7032
528.742	36.0193
528.794	40.8599
528.846	43.273
528.898	41.0818
528.951	38.2561
529.003	38.8497
529.055	40.4709
529.107	37.3882
529.16	39.7191
529.212	39.3843
529.264	39.0414
529.316	40.9137
529.369	38.7704
529.421	41.4628
529.473	37.57
529.525	38.3918
529.577	36.7307
529.63	39.5768
529.682	39.7821
529.734	38.5375
529.786	35.1687
529.839	37.4538
529.891	40.3604
529.943	39.5258
529.995	39.3821
530.047	41.3153
530.1	40.0642
530.152	41.0685
530.204	40.7109
530.256	37.5884
530.308	40.6477
530.361	38.6774
530.413	36.5963
530.465	43.2458
530.517	42.4931
530.57	40.7607
530.622	35.1723
530.674	40.0895
530.726	41.2866
530.778	41.5201
530.831	39.113
530.883	41.2028
530.935	40.1361
530.987	41.7566
531.039	39.8143
531.092	39.4629
531.144	35.6602
531.196	40.1923
531.248	37.7654
531.3	40.2303
531.353	41.0539
531.405	39.6452
531.457	39.0716
531.509	37.4005
531.561	40.5749
531.614	44.1319
531.666	43.4312
531.718	36.8228
531.77	42.2753
531.822	46.2622
531.875	44.5708
531.927	40.2521
531.979	42.9972
532.031	47.2658
532.083	43.126
532.136	35.761
532.188	38.6997
532.24	42.9001
532.292	40.8008
532.344	41.4033
532.397	44.9129
532.449	44.9246
532.501	39.2018
532.553	45.7868
532.605	42.0068
532.658	43.8265
532.71	39.2346
532.762	43.5506
532.814	46.3945
532.866	43.5578
532.919	46.4374
532.971	41.9772
533.023	44.1645
533.075	42.5291
533.127	45.4373
533.179	43.3242
533.232	48.3264
533.284	44.4507
533.336	42.6398
533.388	46.7364
533.44	47.667
533.493	44.1972
533.545	49.0132
533.597	44.254
533.649	44.6007
533.701	45.733
533.753	46.062
533.806	46.0232
533.858	48.5055
533.91	48.0264
533.962	53.1398
534.014	53.4879
534.067	50.0127
534.119	49.987
534.171	57.5811
534.223	57.4089
534.275	62.2257
534.327	58.721
534.38	63.2388
534.432	64.5537
534.484	66.8957
534.536	67.3757
534.588	66.219
534.641	71.7712
534.693	70.3668
534.745	70.4309
534.797	66.9991
534.849	75.6463
534.901	78.1683
534.953	78.9163
535.006	75.4072
535.058	80.9391
535.11	83.3713
535.162	78.068
535.214	78.4705
535.267	79.8365
535.319	80.3975
535.371	76.6225
535.423	71.5719
535.475	66.9782
535.527	68.0436
535.58	73.4615
535.632	67.7948
535.684	65.2304
535.736	66.0281
535.788	62.6158
535.84	62.7971
535.892	61.1924
535.945	59.7275
535.997	59.1438
536.049	59.2768
536.101	60.2108
536.153	57.5737
536.205	52.0936
536.258	58.0244
536.31	56.3141
536.362	54.1547
536.414	55.7233
536.466	48.8824
536.518	49.8798
536.57	56.4926
536.623	50.9875
536.675	49.5563
536.727	55.5035
536.779	50.546
536.831	48.8323
536.883	54.6202
536.936	53.9386
536.988	51.9092
537.04	49.208
537.092	49.9352
537.144	48.3023
537.196	51.8531
537.248	44.306
537.301	50.1709
537.353	48.099
537.405	47.4087
537.457	46.5162
537.509	47.526
537.561	50.6945
537.613	48.6325
537.666	49.7921
537.718	46.2098
537.77	47.1584
537.778	46.8367
537.831	46.3144
537.883	46.8574
537.935	49.0006
537.987	49.2754
538.04	45.301
538.092	38.3159
538.144	43.9438
538.196	52.6416
538.249	52.1855
538.301	47.4322
538.353	50.2279
538.405	44.0807
538.457	48.3625
538.51	48.0316
538.562	45.7958
538.614	45.7462
538.666	42.8944
538.719	49.2268
538.771	53.06
538.823	48.902
538.875	50.0268
538.927	45.1036
538.98	44.4264
539.032	49.8581
539.084	44.4728
539.136	40.501
539.189	47.142
539.241	46.9137
539.293	45.171
539.345	43.2748
539.397	43.4745
539.45	48.1619
539.502	43.2285
539.554	45.0345
539.606	48.5608
539.659	49.3539
539.711	43.3276
539.763	40.3076
539.815	47.285
539.867	50.5402
539.92	43.4346
539.972	48.8799
540.024	49.0804
540.076	44.7682
540.128	50.4793
540.181	47.6226
540.233	47.8124
540.285	50.9409
540.337	44.713
540.39	48.4498
540.442	52.7989
540.494	50.3852
540.546	43.3771
540.598	47.7818
540.651	45.7572
540.703	51.3742
540.755	43.7451
540.807	46.4934
540.859	46.5036
540.912	50.2235
540.964	48.0254
541.016	49.6058
541.068	51.771
541.12	53.3117
541.173	48.5708
541.225	50.2203
541.277	52.7145
541.329	50.2035
541.381	49.2462
541.434	51.608
541.486	55.791
541.538	51.1507
541.59	48.5578
541.642	48.5964
541.695	49.0995
541.747	48.4993
541.799	52.0457
541.851	53.4739
541.903	55.7527
541.956	53.9854
542.008	49.972
542.06	55.6751
542.112	60.0413
542.164	54.7266
542.217	49.3221
542.269	56.6316
542.321	48.2964
542.373	51.6482
542.425	57.104
542.478	55.2669
542.53	50.529
542.582	56.2534
542.634	50.4831
542.686	62.4263
542.738	60.7509
542.791	56.0476
542.843	52.8931
542.895	56.7464
542.947	52.7983
542.999	57.0549
543.052	51.5353
543.104	58.0146
543.156	53.2853
543.208	54.8439
543.26	57.5338
543.313	50.7401
543.365	52.8302
543.417	54.4243
543.469	47.6284
543.521	59.8257
543.573	63.2948
543.626	59.327
543.678	56.1775
543.73	56.6781
543.782	61.1555
543.834	55.9389
543.886	55.5115
543.939	56.4323
543.991	58.7627
544.043	64.0177
544.095	57.1372
544.147	55.4091
544.2	63.332
544.252	55.1446
544.304	62.2699
544.356	59.4808
544.408	58.9427
544.46	55.4418
544.513	56.059
544.565	57.5071
544.617	52.0239
544.669	56.6442
544.721	61.2619
544.773	64.0751
544.826	53.0598
544.878	58.8974
544.93	59.7782
544.982	61.0874
545.034	58.5468
545.086	56.5089
545.139	63.2018
545.191	59.9577
545.243	58.0986
545.295	55.8055
545.347	60.8178
545.399	58.9417
545.452	60.6635
545.504	56.6304
545.556	64.6711
545.608	63.1589
545.66	59.8796
545.712	61.026
545.765	64.5683
545.817	59.4163
545.869	61.3202
545.921	57.9068
545.973	57.1045
546.025	58.6692
546.077	62.3147
546.13	58.3227
546.182	69.2303
546.234	58.2096
546.286	59.2811
546.338	55.7142
546.39	62.9779
546.443	63.4514
546.495	62.026
546.547	60.5336
546.599	62.6008
546.651	60.4756
546.703	64.906
546.755	60.468
546.808	68.9927
546.86	63.5785
546.912	63.3683
546.964	54.7715
547.016	58.9896
547.068	65.1039
547.12	62.8825
547.173	57.4056
547.225	65.9707
547.277	65.5513
547.329	63.3923
547.381	65.6622
547.433	69.0428
547.485	66.3079
547.538	68.4133
547.59	57.3592
547.642	60.9707
547.694	65.0109
547.746	59.6725
547.798	65.6261
547.85	66.2213
547.903	63.8021
547.955	64.353
548.007	61.2753
548.059	66.1988
548.111	64.5018
548.163	65.6572
548.215	67.3169
548.268	68.9047
548.32	66.6083
548.372	65.9532
548.424	70.4098
548.476	66.6676
548.528	65.6679
548.58	62.8549
548.633	67.6119
548.685	71.1359
548.737	66.5434
548.789	64.7363
548.841	62.8901
548.893	67.6156
548.945	65.2601
548.997	64.875
549.049	67.4433
549.102	67.0011
549.154	65.9318
549.206	62.7461
549.258	67.854
549.31	71.769
549.362	73.6587
549.414	64.9514
549.467	67.4407
549.519	69.3856
549.571	75.0374
549.623	65.5409
549.675	69.8245
549.727	71.8187
549.779	72.0533
549.831	69.8384
549.883	72.8882
549.936	75.9858
549.988	75.4446
550.04	71.1557
550.092	67.8863
550.144	67.1534
550.196	72.4961
550.248	67.7061
550.3	75.4615
550.353	72.0285
550.405	76.1193
550.457	71.4528
550.509	73.4103
550.561	75.6544
550.613	78.5255
550.665	75.2483
550.717	80.2402
550.769	80.8142
550.822	79.1117
550.874	75.7332
550.926	78.5324
550.978	75.7817
551.03	82.3275
551.082	82.0139
551.134	80.6389
551.186	80.0118
551.238	86.697
551.291	79.1506
551.343	80.5806
551.395	90.0467
551.447	94.0242
551.499	90.9672
551.551	92.5296
551.603	89.351
551.655	96.4354
551.707	93.9424
551.759	93.2263
551.812	101.378
551.864	93.806
551.916	109.148
551.968	119.902
552.02	119.829
552.072	120.531
552.124	128.066
552.176	143.745
552.228	162.527
552.28	185.64
552.332	239.932
552.385	368.201
552.437	755.937
552.489	1550.57
552.541	2902.18
552.593	5160.45
552.645	7795.44
552.697	7664.75
552.749	4782.16
552.801	2176.42
552.853	874.128
552.905	410.592
552.958	260.434
553.01	199.195
553.062	168.631
553.114	149.697
553.166	140.157
553.218	129.539
553.27	123.691
553.322	111.237
553.374	109.34
553.426	103.794
553.478	105.315
553.531	98.8198
553.583	101.19
553.635	97.5804
553.687	98.0882
553.739	88.6324
553.791	95.4407
553.843	100.069
553.895	99.0529
553.947	92.8904
553.999	97.4866
554.051	85.9266
554.103	85.5971
554.155	92.2825
554.208	97.2885
554.26	92.5098
554.312	89.6251
554.364	91.0654
554.416	94.5157
554.468	90.6925
554.52	93.0784
554.572	92.8372
554.624	92.2283
554.676	89.6464
554.728	92.2782
554.78	86.8602
554.832	91.38
554.884	96.0231
554.937	92.2999
554.989	86.979
555.041	88.1847
555.093	90.6153
555.145	91.6503
555.197	92.5492
555.249	89.2385
555.301	89.4812
555.353	89.1057
555.405	90.9944
555.457	92.5012
555.509	89.0235
555.529	87.0872
555.582	91.8939
555.634	90.9927
555.686	96.9074
555.738	97.9079
555.79	97.0635
555.842	81.1139
555.895	87.8516
555.947	94.7591
555.999	91.9602
556.051	92.7489
556.103	98.8562
556.155	99.8634
556.207	95.3286
556.26	93.0004
556.312	92.2123
556.364	96.639
556.416	96.0265
556.468	89.721
556.52	93.9197
556.573	100.556
556.625	88.8018
556.677	100.627
556.729	101.442
556.781	94.5295
556.833	98.6767
556.885	101.727
556.938	99.7502
556.99	104.56
557.042	94.8326
557.094	104.262
557.146	102.098
557.198	99.4881
557.25	95.316
557.302	97.4458
557.355	96.9623
557.407	102.039
557.459	102.872
557.511	99.6978
557.563	96.4079
557.615	107.019
557.667	93.4511
557.72	106.953
557.772	99.0289
557.824	111.008
557.876	96.562
557.928	103.737
557.98	100.831
558.032	99.7425
558.085	99.373
558.137	104.147
558.189	104.65
558.241	108.143
558.293	108.444
558.345	107.998
558.397	108.652
558.449	113.467
558.502	106.701
558.554	104.747
558.606	107.292
558.658	105.032
558.71	107.764
558.762	113.248
558.814	113.802
558.866	119.038
558.919	110.284
558.971	115.838
559.023	104.707
559.075	104.14
559.127	95.1442
559.179	106.628
559.231	111.257
559.283	110.989
559.336	110.283
559.388	110.378
559.44	109.501
559.492	108.298
559.544	106.472
559.596	112.08
559.648	114.324
559.7	112.226
559.753	109.088
559.805	111.762
559.857	112.84
559.909	111.435
559.961	110.768
560.013	99.2452
560.065	113.549
560.117	115.98
560.169	105.924
560.222	112.154
560.274	114.069
560.326	114.677
560.378	117.358
560.43	116.267
560.482	118.074
560.534	119.195
560.586	119.791
560.638	117.868
560.69	119.262
560.743	117.341
560.795	121.295
560.847	122.715
560.899	118.175
560.951	114.955
561.003	114.993
561.055	121.08
561.107	122.707
561.159	121.544
561.212	123.853
561.264	123.365
561.316	122.491
561.368	124.927
561.42	122.455
561.472	130.276
561.524	133.205
561.576	125.557
561.628	127.478
561.68	123.062
561.733	127.873
561.785	122.801
561.837	128.287
561.889	129.486
561.941	136.923
561.993	130.446
562.045	125.751
562.097	127.062
562.149	125.895
562.201	126.537
562.253	133.677
562.306	130.187
562.358	124.619
562.41	129.432
562.462	132.584
562.514	128.705
562.566	134.106
562.618	129.602
562.67	135.366
562.722	134.598
562.774	132.314
562.826	128.462
562.879	140.049
562.931	134.741
562.983	132.008
563.035	128.52
563.087	128.378
563.139	139.588
563.191	137.537
563.243	132.343
563.295	144.415
563.347	142.751
563.399	138.745
563.451	140.381
563.504	136.635
563.556	139.905
563.608	142.104
563.66	143.717
563.712	144.365
563.764	139.826
563.816	137.798
563.868	142.755
563.92	141.25
563.972	145.539
564.024	140.956
564.076	145.329
564.128	142.639
564.181	144.173
564.233	137.497
564.285	140.416
564.337	148.242
564.389	146.126
564.441	144.217
564.493	150.806
564.545	152.152
564.597	148.065
564.649	150.537
564.701	144.181
564.753	139.315
564.805	144.937
564.857	151.068
564.909	153.079
564.962	150.99
565.014	147.363
565.066	150.141
565.118	157.829
565.17	154.51
565.222	156.914
565.274	150.185
565.326	152.373
565.378	151.983
565.43	158.048
565.482	159.4
565.534	157.534
565.586	156.79
565.638	156.861
565.69	159.93
565.742	162.363
565.795	156.056
565.847	158.291
565.899	154.98
565.951	160.347
566.003	157.988
566.055	157.718
566.107	158.46
566.159	162.544
566.211	158.459
566.263	158.96
566.315	157.439
566.367	160.476
566.419	167.61
566.471	162.211
566.523	155.095
566.575	159.078
566.627	164.865
566.679	164.576
566.732	160.658
566.784	168.762
566.836	168.839
566.888	164.361
566.94	161.709
566.992	166.432
567.044	166.377
567.096	170.421
567.148	172.585
567.2	171.27
567.252	166.514
567.304	164.702
567.356	164.986
567.408	175.661
567.46	173.742
567.512	172.097
567.564	168.772
567.616	169.66
567.668	176.936
567.72	178.555
567.772	167.758
567.824	170.448
567.876	176.395
567.928	172.401
567.98	171.564
568.033	179.46
568.085	183.581
568.137	176.437
568.189	170.7
568.241	177.892
568.293	183.645
568.345	177.47
568.397	183.127
568.449	180.358
568.501	176.543
568.553	179.245
568.605	184.32
568.657	181.851
568.709	179.386
568.761	178.866
568.813	182.486
568.865	184.704
568.917	185.918
568.969	183.45
569.021	189.605
569.073	192.763
569.125	190.641
569.177	188.023
569.229	183.22
569.281	183.596
569.333	184.565
569.385	191.826
569.437	194.438
569.489	194.622
569.541	197.9
569.593	189.336
569.645	189.911
569.697	198.389
569.749	201.612
569.801	196.881
569.853	198.167
569.905	202.945
569.957	204.385
570.009	200.296
570.061	200.389
570.113	201.34
570.165	207.202
570.217	208.789
570.269	206.778
570.321	204.94
570.374	211.312
570.426	212.827
570.478	209.979
570.53	206.282
570.582	216.214
570.634	219.539
570.686	215.933
570.738	217.575
570.79	217.312
570.842	214.459
570.894	219.748
570.946	225.269
570.998	223.652
571.05	223.714
571.102	224.728
571.154	226.825
571.206	233.351
571.258	232.704
571.31	231.341
571.362	235.395
571.414	235.281
571.466	239.604
571.518	238.799
571.57	235.573
571.622	240.256
571.674	251.025
571.726	252.095
571.778	253.538
571.83	246.446
571.882	264.005
571.934	268.313
571.986	261.923
572.038	261.269
572.09	269.111
572.142	264.908
572.194	267.001
572.246	262.561
572.298	262.123
572.349	273.931
572.401	278.768
572.453	275.286
572.505	284.363
572.557	291.431
572.609	292.709
572.661	292.118
572.713	290.173
572.765	302.598
572.817	294.54
572.869	298.472
572.921	309.368
572.973	315.121
573.025	312.402
573.077	311.47
573.129	325.685
573.181	323.953
573.212	328.645
573.264	322.201
573.316	332.498
573.368	339.858
573.421	339.548
573.473	352.494
573.525	344.759
573.577	356.18
573.629	373.379
573.681	361.504
573.733	364.017
573.785	371.952
573.837	377.551
573.889	375.091
573.941	375.96
573.993	397.543
574.045	396.265
574.097	409.175
574.15	416.849
574.202	411.894
574.254	424.751
574.306	425.38
574.358	431.051
574.41	448.904
574.462	451.669
574.514	449.386
574.566	455.527
574.618	459.939
574.67	476.517
574.722	487.854
574.774	486.118
574.826	507.3
574.878	508.579
574.931	525.286
574.983	532.697
575.035	546.235
575.087	546.437
575.139	545.569
575.191	557.54
575.243	545.734
575.295	570.13
575.347	566.333
575.399	578.119
575.451	582.172
575.503	581.805
575.555	582.576
575.607	573.847
575.659	589.846
575.711	611.687
575.763	601.598
575.815	598.721
575.868	589.398
575.92	602.072
575.972	598.967
576.024	603.397
576.076	605.441
576.128	586.082
576.18	586.281
576.232	575.956
576.284	587.255
576.336	576.257
576.388	586.414
576.44	586.551
576.492	583.53
576.544	566.367
576.596	567.757
576.648	563.118
576.7	565.264
576.752	545.526
576.804	537.863
576.856	538.845
576.909	533.561
576.961	518.218
577.013	504.7
577.065	514.523
577.117	509.273
577.169	492.631
577.221	502.116
577.273	491.958
577.325	486.392
577.377	488.6
577.429	470.202
577.481	475.401
577.533	455.293
577.585	448.454
577.637	441.662
577.689	450.858
577.741	455.492
577.793	442.084
577.845	435.74
577.897	444.732
577.949	427.057
578.001	435.532
578.053	431.811
578.105	418.631
578.157	423.117
578.209	411.428
578.261	414.062
578.313	409.36
578.365	415.28
578.417	409.108
578.469	412.792
578.522	408.711
578.574	405.319
578.626	405.34
578.678	398.813
578.73	396.279
578.782	390.621
578.834	385.046
578.886	391.963
578.938	391.158
578.99	394.217
579.042	385.174
579.094	373.686
579.146	378.458
579.198	385.682
579.25	387.54
579.302	392.794
579.354	391.426
579.406	385.195
579.458	376.657
579.51	381.903
579.562	380.497
579.614	383.473
579.666	387.712
579.718	384.509
579.77	382.839
579.822	389.012
