#Acq. time (s)=	2
#Accumulations=	3
#Range (nm)=	520...900
#Windows=	24
#Auto scanning=	On
#Autofocus=	Off
#AutoExposure=	Off
#Spike filter=	Multiple accum.
#Delay time (s)=	0
#Binning=	1
#Readout mode=	Signal
#DeNoise=	Off
#ICS correction=	Off
#Dark correction=	Off
#Inst. Process=	Off
#Detector temperature (°C)=	-59.98
#Instrument=	LabRAM HR Evol
#Detector=	Syncerity OE
#Objective=	x50_VIS
#Grating=	600 (500nm)
#ND Filter=	10%
#Laser=	514nm_Edge
#Hole=	199.981
#Range=	Auto
#StageXY=	Marzhauser
#StageZ=	Marzhauser
#X (µm)=	14714.6
#Y (µm)=	2789.2
#Z (µm)=	-16.6
#Full time(mm:ss)=	3:04
#Project=	
#Sample=	
#Site=	
#Title=	M5_140224
#Remark=	
#Date=	19.02.2024 14:27
#Acquired=	19.02.2024 14:27:01
520.013	29.1796
520.065	27.1835
520.117	27.5563
520.17	30.4701
520.222	29.5097
520.274	29.324
520.327	26.4134
520.379	26.5035
520.431	25.6604
520.483	24.7637
520.536	27.4771
520.588	30.3279
520.64	29.7599
520.693	29.9814
520.745	24.0761
520.797	26.7817
520.85	27.4281
520.902	27.9208
520.954	26.2662
521.007	28.8322
521.059	28.9959
521.111	26.1647
521.163	21.9323
521.216	28.879
521.268	22.201
521.32	28.8393
521.373	27.5346
521.425	28.7336
521.477	25.2757
521.529	27.4376
521.582	28.4529
521.634	26.3115
521.686	26.3153
521.739	29.3636
521.791	22.4714
521.843	31.8264
521.896	29.3113
521.948	29.5556
522	29.0014
522.052	26.499
522.105	27.1639
522.157	33.0915
522.209	27.4435
522.262	29.9949
522.314	25.6389
522.366	27.175
522.418	26.906
522.471	25.219
522.523	23.4063
522.575	26.8909
522.628	28.7054
522.68	30.9224
522.732	25.4932
522.784	28.5734
522.837	30.5828
522.889	26.8565
522.941	29.5682
522.994	23.309
523.046	25.0707
523.098	28.1868
523.15	29.79
523.203	28.0289
523.255	28.5681
523.307	28.5702
523.36	26.7884
523.412	28.1467
523.464	28.8601
523.516	24.5625
523.569	19.6515
523.621	24.4447
523.673	28.4263
523.726	31.3333
523.778	29.1584
523.83	26.102
523.882	29.4038
523.935	30.959
523.987	26.6916
524.039	22.6427
524.091	27.2274
524.144	28.9989
524.196	30.1679
524.248	25.2925
524.301	28.4802
524.353	27.5091
524.405	31.2976
524.457	26.7686
524.51	27.2588
524.562	30.8176
524.614	30.3832
524.666	27.5702
524.719	29.5848
524.771	31.2448
524.823	30.0489
524.875	28.3217
524.928	30.1917
524.98	31.4934
525.032	28.683
525.085	26.9761
525.137	27.6737
525.189	31.1523
525.241	30.3603
525.294	28.7763
525.346	31.6861
525.398	29.2477
525.45	29.1341
525.503	26.9984
525.555	27.1234
525.607	31.397
525.659	26.9348
525.712	28.8529
525.764	31.0917
525.816	26.5625
525.868	25.9575
525.921	29.2487
525.973	30.6539
526.025	29.0776
526.077	31.1854
526.13	27.6328
526.182	31.4773
526.234	27.6014
526.286	26.0682
526.339	28.3854
526.391	30.9768
526.443	25.9495
526.495	26.7704
526.548	28.6449
526.6	29.6263
526.652	27.8112
526.704	27.4033
526.757	30.6667
526.809	28.9797
526.861	29.4592
526.913	29.414
526.966	31.457
527.018	33.1624
527.07	30.3236
527.122	26.3768
527.175	24.728
527.227	29.9424
527.279	28.1918
527.331	26.5828
527.384	29.8256
527.436	29.1884
527.488	30.4289
527.54	26.4952
527.593	27.155
527.645	31.8951
527.697	30.52
527.749	26.0833
527.802	27.8567
527.854	30.4553
527.906	28.3261
527.958	24.849
528.011	28.5415
528.063	28.7493
528.115	30.9422
528.167	29.1286
528.219	30.3112
528.272	28.1654
528.324	24.6629
528.376	23.4258
528.428	29.4247
528.481	30.8591
528.533	27.7284
528.585	28.033
528.637	26.6134
528.69	28.651
528.742	29.5618
528.794	25.1197
528.846	30.7031
528.898	31.4124
528.951	28.1797
529.003	27.6045
529.055	27.0811
529.107	28.3942
529.16	29.1204
529.212	28.846
529.264	27.4224
529.316	29.2161
529.369	26.9465
529.421	20.9462
529.473	26.1684
529.525	26.9939
529.577	25.4251
529.63	26.0127
529.682	30.812
529.734	33.0157
529.786	27.1177
529.839	26.9169
529.891	30.7323
529.943	29.6876
529.995	31.5804
530.047	27.6674
530.1	33.3692
530.152	30.2733
530.204	28.3722
530.256	28.7917
530.308	31.8647
530.361	31.283
530.413	31.2854
530.465	31.3234
530.517	30.27
530.57	30.7666
530.622	28.6621
530.674	27.1123
530.726	30.9432
530.778	30.9962
530.831	28.9364
530.883	29.1556
530.935	32.667
530.987	29.2784
531.039	27.6206
531.092	26.4343
531.144	29.3286
531.196	26.6893
531.248	24.0789
531.3	27.9353
531.353	27.6339
531.405	26.6056
531.457	26.8802
531.509	30.4065
531.561	30.7047
531.614	28.5927
531.666	24.4133
531.718	27.4104
531.77	26.6324
531.822	28.4028
531.875	27.5363
531.927	30.9509
531.979	30.2403
532.031	29.7605
532.083	27.001
532.136	29.1711
532.188	31.9317
532.24	28.0029
532.292	26.9164
532.344	28.2256
532.397	30.4508
532.449	31.1384
532.501	29.2495
532.553	27.8018
532.605	34.1686
532.658	29.2543
532.71	30.8332
532.762	30.7103
532.814	32.0679
532.866	28.8391
532.919	27.8299
532.971	30.8851
533.023	33.7301
533.075	32.3119
533.127	28.6069
533.179	28.6516
533.232	33.7486
533.284	30.617
533.336	34.5975
533.388	29.4571
533.44	32.4899
533.493	29.7007
533.545	30.735
533.597	36.2447
533.649	34.2221
533.701	32.0499
533.753	28.5483
533.806	35.5195
533.858	31.6374
533.91	27.422
533.962	34.8295
534.014	36.528
534.067	40.7595
534.119	34.8335
534.171	37.4505
534.223	37.9537
534.275	39.052
534.327	37.3032
534.38	37.5232
534.432	37.6447
534.484	41.106
534.536	38.8456
534.588	46.9495
534.641	44.2202
534.693	47.0635
534.745	46.718
534.797	43.5706
534.849	48.3724
534.901	50.8009
534.953	46.6723
535.006	53.4585
535.058	51.4133
535.11	55.7649
535.162	54.3887
535.214	52.7508
535.267	59.5678
535.319	47.1288
535.371	44.5936
535.423	53.031
535.475	54.0159
535.527	45.1998
535.58	45.404
535.632	47.4271
535.684	47.1875
535.736	41.9326
535.788	37.4276
535.84	43.1013
535.892	42.0971
535.945	35.8992
535.997	37.8937
536.049	42.9256
536.101	39.9008
536.153	36.7912
536.205	35.3008
536.258	37.2245
536.31	40.1287
536.362	35.7795
536.414	34.617
536.466	36.9901
536.518	36.0865
536.57	36.3324
536.623	32.6666
536.675	38.3679
536.727	34.9558
536.779	34.8322
536.831	32.2444
536.883	32.9777
536.936	33.0625
536.988	31.3893
537.04	28.5943
537.092	35.1075
537.144	35.6789
537.196	37.6861
537.248	38.4973
537.301	34.0968
537.353	35.7301
537.405	30.5032
537.457	33.1924
537.509	33.146
537.561	34.658
537.613	34.6787
537.666	30.8267
537.718	35.352
537.77	35.2679
537.778	34.4518
537.831	26.7027
537.883	31.1488
537.935	36.9169
537.987	37.2953
538.04	35.1062
538.092	31.7398
538.144	29.7361
538.196	39.4672
538.249	33.4012
538.301	36.7054
538.353	30.116
538.405	36.8531
538.457	32.6014
538.51	33.0279
538.562	31.7827
538.614	31.2505
538.666	33.0441
538.719	32.6843
538.771	37.0757
538.823	36.0585
538.875	25.0782
538.927	35.9156
538.98	34.3686
539.032	30.4645
539.084	34.9592
539.136	33.3497
539.189	40.7052
539.241	37.78
539.293	29.1743
539.345	33.0921
539.397	33.5456
539.45	30.6232
539.502	29.3362
539.554	33.9597
539.606	34.9982
539.659	34.7301
539.711	30.2463
539.763	32.2976
539.815	36.1523
539.867	30.1106
539.92	31.4704
539.972	33.0967
540.024	37.296
540.076	34.2589
540.128	31.4604
540.181	31.0842
540.233	31.5763
540.285	33.3423
540.337	31.0428
540.39	30.6189
540.442	39.1391
540.494	31.4674
540.546	28.5287
540.598	33.8357
540.651	39.3224
540.703	32.5102
540.755	27.8992
540.807	33.802
540.859	34.3037
540.912	28.8608
540.964	34.9911
541.016	34.3889
541.068	36.6647
541.12	36.0401
541.173	37.2434
541.225	35.9605
541.277	30.092
541.329	34.2373
541.381	39.5999
541.434	32.4418
541.486	43.5806
541.538	33.8031
541.59	34.0157
541.642	35.4056
541.695	37.1018
541.747	34.763
541.799	35.0251
541.851	38.7228
541.903	40.3721
541.956	34.1002
542.008	32.3407
542.06	36.959
542.112	34.8523
542.164	33.2276
542.217	36.5783
542.269	33.7422
542.321	33.4331
542.373	34.8426
542.425	37.6642
542.478	34.1606
542.53	35.3384
542.582	36.0382
542.634	33.5872
542.686	33.8865
542.738	36.7296
542.791	38.4188
542.843	31.8269
542.895	33.4334
542.947	37.5023
542.999	35.8076
543.052	33.9313
543.104	40.2811
543.156	36.4892
543.208	30.6659
543.26	32.9685
543.313	40.7012
543.365	37.3575
543.417	34.7327
543.469	37.7799
543.521	36.2673
543.573	37.9594
543.626	36.159
543.678	38.3401
543.73	37.9573
543.782	37.1429
543.834	34.3254
543.886	40.8995
543.939	36.2795
543.991	38.4025
544.043	38.3358
544.095	37.9349
544.147	36.7095
544.2	37.2928
544.252	33.9669
544.304	32.4801
544.356	38.3768
544.408	42.9957
544.46	31.8883
544.513	39.6131
544.565	41.1727
544.617	41.3507
544.669	36.9112
544.721	34.5829
544.773	39.0076
544.826	38.8759
544.878	34.2692
544.93	41.354
544.982	42.5826
545.034	35.6317
545.086	41.6411
545.139	38.9071
545.191	43.6269
545.243	40.0701
545.295	41.5505
545.347	38.4398
545.399	40.8096
545.452	37.9441
545.504	38.1057
545.556	37.7934
545.608	36.8949
545.66	34.8276
545.712	41.0993
545.765	38.7887
545.817	39.8848
545.869	39.5522
545.921	39.0696
545.973	31.9759
546.025	38.7533
546.077	37.7414
546.13	39.5871
546.182	41.8276
546.234	44.0497
546.286	34.8067
546.338	39.5151
546.39	39.0717
546.443	45.1788
546.495	41.723
546.547	40.7897
546.599	39.0294
546.651	37.8163
546.703	39.8251
546.755	41.3455
546.808	35.3497
546.86	39.7959
546.912	41.7885
546.964	38.7639
547.016	40.5699
547.068	40.2483
547.12	38.1842
547.173	41.1773
547.225	44.776
547.277	40.5594
547.329	36.9426
547.381	41.0899
547.433	40.6266
547.485	40.3349
547.538	37.2835
547.59	37.6204
547.642	34.571
547.694	41.2863
547.746	40.1659
547.798	42.7294
547.85	42.0725
547.903	39.8956
547.955	40.4573
548.007	36.9298
548.059	43.6255
548.111	40.3642
548.163	46.4567
548.215	40.3474
548.268	41.0353
548.32	42.7483
548.372	37.9922
548.424	37.5157
548.476	39.9458
548.528	38.4206
548.58	41.8354
548.633	40.6201
548.685	35.2132
548.737	40.2468
548.789	40.035
548.841	40.1064
548.893	38.0859
548.945	34.8712
548.997	40.1576
549.049	44.2113
549.102	40.8587
549.154	44.9086
549.206	41.7303
549.258	41.5507
549.31	47.7934
549.362	47.1928
549.414	47.2383
549.467	41.9509
549.519	46.0814
549.571	41.5254
549.623	42.526
549.675	42.4246
549.727	46.8641
549.779	43.5857
549.831	46.2851
549.883	45.6526
549.936	45.1207
549.988	44.6225
550.04	43.0452
550.092	38.7194
550.144	41.0706
550.196	41.5253
550.248	39.0863
550.3	44.1352
550.353	39.7832
550.405	47.8655
550.457	47.9847
550.509	39.9651
550.561	44.8613
550.613	43.5574
550.665	47.4986
550.717	50.1161
550.769	49.2295
550.822	46.0091
550.874	44.0137
550.926	44.5119
550.978	45.4346
551.03	48.2045
551.082	52.7315
551.134	48.0493
551.186	50.953
551.238	49.8447
551.291	49.1432
551.343	53.0581
551.395	54.201
551.447	52.8473
551.499	55.3272
551.551	50.9424
551.603	53.7838
551.655	57.1003
551.707	62.3499
551.759	57.5859
551.812	59.4209
551.864	65.5315
551.916	66.485
551.968	72.8106
552.02	76.1542
552.072	84.8726
552.124	86.1407
552.176	95.1905
552.228	104.424
552.28	129.001
552.332	188.996
552.385	298.648
552.437	641.284
552.489	1290.62
552.541	2320.73
552.593	3888.83
552.645	5401.4
552.697	5540.2
552.749	3847.37
552.801	1870.72
552.853	716.568
552.905	308.645
552.958	190.822
553.01	144.22
553.062	110.856
553.114	93.8621
553.166	81.6491
553.218	76.5656
553.27	72.6959
553.322	69.1485
553.374	69.1177
553.426	65.6977
553.478	63.4558
553.531	65.0073
553.583	61.3188
553.635	61.4693
553.687	59.1276
553.739	57.2169
553.791	54.4111
553.843	49.217
553.895	54.0096
553.947	54.0679
553.999	56.4741
554.051	49.8518
554.103	51.2485
554.155	49.6683
554.208	44.8168
554.26	47.9441
554.312	51.2794
554.364	51.9446
554.416	50.3527
554.468	49.4157
554.52	49.5345
554.572	49.8637
554.624	50.5048
554.676	50.7466
554.728	49.732
554.78	50.8426
554.832	49.4383
554.884	51.7987
554.937	54.5646
554.989	51.8125
555.041	50.0383
555.093	49.8421
555.145	46.8562
555.197	48.0826
555.249	50.6799
555.301	50.4142
555.353	48.093
555.405	48.8748
555.457	48.271
555.509	50.5787
555.529	52.8754
555.582	49.9743
555.634	51.9403
555.686	45.1509
555.738	49.8511
555.79	48.144
555.842	52.076
555.895	49.0307
555.947	48.9724
555.999	48.904
556.051	48.0106
556.103	54.6747
556.155	50.0624
556.207	48.2171
556.26	45.6855
556.312	50.8817
556.364	46.9684
556.416	49.0232
556.468	51.9822
556.52	51.9715
556.573	57.4757
556.625	53.5682
556.677	52.1489
556.729	52.6883
556.781	52.8419
556.833	57.4196
556.885	53.0398
556.938	48.7235
556.99	55.32
557.042	53.5388
557.094	51.8528
557.146	61.3449
557.198	49.3854
557.25	55.114
557.302	50.9714
557.355	48.4325
557.407	55.5266
557.459	53.5129
557.511	59.7611
557.563	56.252
557.615	54.4448
557.667	49.2179
557.72	50.9689
557.772	56.6891
557.824	59.2924
557.876	50.9963
557.928	53.5984
557.98	54.3968
558.032	49.4107
558.085	56.0883
558.137	49.3387
558.189	49.9978
558.241	55.419
558.293	55.7989
558.345	57.0408
558.397	56.0369
558.449	46.4242
558.502	56.5849
558.554	59.0412
558.606	53.1238
558.658	63.0606
558.71	54.417
558.762	53.4048
558.814	57.9711
558.866	56.3295
558.919	58.9964
558.971	52.0911
559.023	59.8479
559.075	51.0234
559.127	57.2091
559.179	47.5437
559.231	55.0366
559.283	57.9576
559.336	58.6459
559.388	56.8913
559.44	53.306
559.492	59.8104
559.544	60.3666
559.596	60.6874
559.648	57.2477
559.7	55.1515
559.753	55.46
559.805	52.4609
559.857	52.1616
559.909	60.691
559.961	58.3906
560.013	58.603
560.065	59.1128
560.117	57.1091
560.169	57.2873
560.222	64.0743
560.274	59.1552
560.326	55.1472
560.378	51.3849
560.43	55.1996
560.482	59.8589
560.534	63.9194
560.586	63.7539
560.638	59.8319
560.69	56.4119
560.743	61.943
560.795	62.9632
560.847	62.1012
560.899	60.8566
560.951	57.2991
561.003	63.1525
561.055	61.8251
561.107	60.8559
561.159	60.3278
561.212	62.6539
561.264	56.6561
561.316	64.2044
561.368	63.2767
561.42	63.9598
561.472	58.103
561.524	59.8638
561.576	63.1363
561.628	58.2448
561.68	59.6786
561.733	59.7693
561.785	63.0072
561.837	63.922
561.889	60.1449
561.941	63.203
561.993	64.4439
562.045	63.8423
562.097	64.164
562.149	68.8213
562.201	64.1624
562.253	60.6607
562.306	60.4788
562.358	59.928
562.41	65.5952
562.462	63.8966
562.514	64.5082
562.566	64.5077
562.618	68.4241
562.67	67.4178
562.722	63.5619
562.774	61.8681
562.826	67.2093
562.879	66.8461
562.931	70.519
562.983	70.1223
563.035	67.7711
563.087	64.7202
563.139	69.2182
563.191	74.0908
563.243	70.045
563.295	74.1535
563.347	69.0247
563.399	71.5022
563.451	69.9417
563.504	62.0754
563.556	63.1919
563.608	68.6236
563.66	73.3448
563.712	67.1238
563.764	70.6084
563.816	70.7784
563.868	67.1705
563.92	66.1569
563.972	70.6174
564.024	69.022
564.076	72.8466
564.128	70.8504
564.181	71.5985
564.233	68.6756
564.285	72.0876
564.337	72.7916
564.389	70.7141
564.441	70.1371
564.493	74.3214
564.545	73.1777
564.597	74.5829
564.649	71.6806
564.701	71.2059
564.753	68.5203
564.805	71.3981
564.857	71.0758
564.909	71.2451
564.962	76.4639
565.014	74.5357
565.066	74.4968
565.118	72.249
565.17	72.8979
565.222	72.0402
565.274	74.8957
565.326	75.1644
565.378	70.898
565.43	72.7014
565.482	77.7889
565.534	73.9384
565.586	70.8418
565.638	80.4169
565.69	76.7626
565.742	72.6254
565.795	74.4881
565.847	73.4553
565.899	72.4277
565.951	73.0033
566.003	77.806
566.055	80.2842
566.107	81.9313
566.159	78.6664
566.211	76.6146
566.263	73.5608
566.315	78.335
566.367	76.2618
566.419	77.4078
566.471	75.8057
566.523	75.0383
566.575	79.8003
566.627	79.3789
566.679	78.3977
566.732	83.3827
566.784	82.6292
566.836	80.2452
566.888	81.5344
566.94	84.1811
566.992	84.6695
567.044	78.2823
567.096	81.8285
567.148	84.1005
567.2	85.7244
567.252	84.1374
567.304	85.8713
567.356	87.6714
567.408	81.7011
567.46	82.2852
567.512	83.4748
567.564	85.7447
567.616	82.9374
567.668	84.4291
567.72	85.2509
567.772	80.338
567.824	78.7571
567.876	80.7631
567.928	83.8376
567.98	83.4608
568.033	86.1922
568.085	86.501
568.137	81.0834
568.189	81.3829
568.241	86.7622
568.293	80.4463
568.345	82.8951
568.397	85.7295
568.449	85.3454
568.501	86.4225
568.553	85.1896
568.605	87.6091
568.657	87.8567
568.709	91.0952
568.761	90.437
568.813	88.5712
568.865	92.1659
568.917	90.3138
568.969	85.7757
569.021	83.9005
569.073	88.6628
569.125	87.0545
569.177	88.1014
569.229	87.4112
569.281	88.483
569.333	86.1311
569.385	89.1201
569.437	90.1277
569.489	87.2457
569.541	91.0775
569.593	94.9953
569.645	93.277
569.697	94.4701
569.749	89.5857
569.801	92.642
569.853	93.6973
569.905	88.9686
569.957	91.4746
570.009	92.0474
570.061	98.1148
570.113	100.432
570.165	95.7507
570.217	99.2768
570.269	97.668
570.321	91.6725
570.374	94.1904
570.426	97.9171
570.478	98.8225
570.53	102.169
570.582	99.0507
570.634	94.475
570.686	90.9613
570.738	96.1064
570.79	102.114
570.842	106.526
570.894	103.472
570.946	104.249
570.998	107.854
571.05	104.897
571.102	104.868
571.154	101.115
571.206	99.421
571.258	107.545
571.31	106.996
571.362	108.137
571.414	107.574
571.466	109.356
571.518	117.184
571.57	114.111
571.622	111.557
571.674	114.926
571.726	112.545
571.778	114.342
571.83	111.008
571.882	118.74
571.934	122.89
571.986	118.049
572.038	115.346
572.09	114.82
572.142	122.779
572.194	127.552
572.246	123.469
572.298	121.098
572.349	122.715
572.401	126.219
572.453	128.433
572.505	133.684
572.557	128.045
572.609	124.02
572.661	127.771
572.713	131.315
572.765	133.558
572.817	132.23
572.869	135.897
572.921	133.268
572.973	134.72
573.025	142.503
573.077	135.138
573.129	143.517
573.181	144.353
573.212	143.751
573.264	143.238
573.316	148.842
573.368	152.285
573.421	157.374
573.473	156.157
573.525	154.609
573.577	155.165
573.629	153.022
573.681	161.533
573.733	167.793
573.785	166.814
573.837	164.527
573.889	163.35
573.941	165.272
573.993	173.374
574.045	175.344
574.097	186.306
574.15	184.583
574.202	184.855
574.254	189.092
574.306	190.939
574.358	188.534
574.41	197.555
574.462	198.759
574.514	197.829
574.566	201.48
574.618	206.409
574.67	213.248
574.722	211.442
574.774	212.33
574.826	213.085
574.878	222.656
574.931	225.915
574.983	237.188
575.035	233.063
575.087	233.272
575.139	231.894
575.191	232.674
575.243	240.694
575.295	246.195
575.347	242.236
575.399	249.925
575.451	244.132
575.503	247.627
575.555	251.092
575.607	249.878
575.659	260.653
575.711	266.21
575.763	258.565
575.815	259.318
575.868	264.73
575.92	262.197
575.972	271.146
576.024	258.824
576.076	261.159
576.128	260.63
576.18	257.682
576.232	265.046
576.284	258.554
576.336	256.757
576.388	258.444
576.44	256.795
576.492	250.853
576.544	250.818
576.596	243.407
576.648	245.131
576.7	247.556
576.752	240.423
576.804	239.889
576.856	238.211
576.909	234.828
576.961	232.404
577.013	234.037
577.065	236.586
577.117	226.007
577.169	225.368
577.221	213.309
577.273	213.858
577.325	215.773
577.377	212.392
577.429	211.381
577.481	213.778
577.533	214.083
577.585	206.16
577.637	206.327
577.689	207.457
577.741	203.025
577.793	206.209
577.845	194.903
577.897	190.464
577.949	190.424
578.001	189.698
578.053	184.578
578.105	191.241
578.157	190.461
578.209	194.468
578.261	192.348
578.313	182.697
578.365	179.123
578.417	176.516
578.469	180.355
578.522	173.103
578.574	187.842
578.626	177.844
578.678	169.488
578.73	179.948
578.782	172.513
578.834	179.496
578.886	171.327
578.938	174.133
578.99	170.554
579.042	168.759
579.094	178.249
579.146	166.885
579.198	170.372
579.25	167.285
579.302	169.768
579.354	165.699
579.406	170.798
579.458	170.338
579.51	166.991
579.562	168.715
579.614	178.131
579.666	174.391
579.718	171.097
579.77	172.884
