#Acq. time (s)=	3
#Accumulations=	2
#Range (nm)=	520...900
#Windows=	8
#Auto scanning=	Off
#Autofocus=	Off
#AutoExposure=	Off
#Spike filter=	Multiple accum.
#Delay time (s)=	0
#Binning=	1
#Readout mode=	Signal
#DeNoise=	Off
#ICS correction=	Off
#Dark correction=	Off
#Inst. Process=	Off
#Detector temperature (°C)=	-59.98
#Instrument=	LabRAM HR Evol
#Detector=	Syncerity OE
#Objective=	x50_VIS
#Grating=	600 (500nm)
#ND Filter=	10%
#Laser=	514nm_Edge
#Hole=	199.981
#Range=	Auto
#StageXY=	Marzhauser
#StageZ=	Marzhauser
#X (µm)=	0
#Y (µm)=	0
#Z (µm)=	0
#Full time(mm:ss)=	1:32
#Project=	
#Sample=	
#Site=	
#Title=	M5_270224
#Remark=	
#Date=	06.03.2024 10:19
#Acquired=	06.03.2024 10:19:02
520.044	24
520.097	28
520.149	20
520.201	26
520.254	30
520.306	28
520.359	28
520.411	16
520.464	28
520.516	26
520.569	26
520.621	24
520.674	28
520.726	28
520.778	36
520.831	26
520.883	26
520.936	28
520.988	28
521.041	26
521.093	26
521.146	32
521.198	24
521.25	16
521.303	30
521.355	28
521.408	28
521.46	22
521.513	26
521.565	28
521.617	26
521.67	26
521.722	28
521.775	28
521.827	28
521.88	18
521.932	24
521.984	28
522.037	26
522.089	24
522.142	22
522.194	22
522.247	28
522.299	18
522.352	28
522.404	30
522.456	22
522.509	22
522.561	30
522.614	36
522.666	28
522.719	30
522.771	26
522.823	32
522.876	26
522.928	18
522.981	30
523.033	28
523.086	30
523.138	22
523.19	16
523.243	28
523.295	30
523.348	24
523.4	30
523.453	26
523.505	34
523.557	22
523.61	18
523.662	26
523.715	30
523.767	26
523.82	22
523.872	30
523.924	30
523.977	26
524.029	28
524.082	32
524.134	30
524.186	24
524.239	22
524.291	30
524.344	30
524.396	24
524.449	16
524.501	24
524.553	26
524.606	24
524.658	16
524.711	28
524.763	24
524.815	34
524.868	24
524.92	30
524.973	34
525.025	26
525.078	24
525.13	28
525.182	30
525.235	30
525.287	22
525.34	34
525.392	32
525.444	30
525.497	24
525.549	22
525.602	32
525.654	28
525.706	22
525.759	30
525.811	30
525.864	34
525.916	22
525.969	24
526.021	22
526.073	30
526.126	20
526.178	22
526.231	24
526.283	26
526.335	24
526.388	28
526.44	24
526.493	26
526.545	22
526.597	28
526.65	38
526.702	32
526.755	28
526.807	20
526.859	24
526.912	28
526.964	22
527.017	24
527.069	34
527.121	24
527.174	28
527.226	30
527.279	26
527.331	26
527.383	18
527.436	24
527.488	38
527.54	30
527.593	34
527.645	26
527.698	30
527.75	30
527.802	24
527.855	26
527.907	28
527.96	32
528.012	26
528.064	20
528.117	32
528.169	30
528.222	26
528.274	20
528.326	32
528.379	30
528.431	20
528.484	16
528.536	32
528.588	28
528.641	30
528.693	24
528.745	32
528.798	28
528.85	24
528.903	30
528.955	30
529.007	32
529.06	34
529.112	16
529.164	26
529.217	24
529.269	20
529.322	32
529.374	24
529.426	32
529.479	30
529.531	26
529.584	26
529.636	26
529.688	32
529.741	26
529.793	24
529.845	36
529.898	32
529.95	28
530.003	28
530.055	36
530.107	30
530.16	16
530.212	28
530.264	30
530.317	34
530.369	28
530.422	20
530.474	34
530.526	32
530.579	28
530.631	28
530.683	30
530.736	28
530.788	20
530.841	26
530.893	34
530.945	34
530.998	26
531.05	24
531.102	34
531.155	26
531.207	24
531.259	24
531.312	24
531.364	30
531.417	36
531.469	20
531.521	36
531.574	26
531.626	26
531.678	24
531.731	26
531.783	34
531.835	32
531.888	30
531.94	38
531.992	34
532.045	30
532.097	28
532.15	34
532.202	28
532.254	26
532.307	24
532.359	34
532.411	36
532.464	30
532.516	24
532.568	28
532.621	32
532.673	30
532.726	22
532.778	26
532.83	30
532.883	36
532.935	24
532.987	30
533.04	32
533.092	28
533.144	28
533.197	30
533.249	30
533.301	30
533.354	26
533.406	34
533.458	34
533.511	22
533.563	28
533.615	34
533.668	28
533.72	24
533.773	26
533.825	18
533.877	32
533.93	28
533.982	22
534.034	26
534.087	30
534.139	32
534.191	20
534.244	32
534.296	44
534.348	28
534.401	32
534.453	32
534.505	32
534.558	36
534.61	32
534.662	30
534.715	44
534.767	34
534.819	28
534.872	28
534.924	34
534.976	36
535.029	28
535.081	28
535.133	42
535.186	38
535.238	30
535.29	26
535.343	36
535.395	36
535.447	36
535.5	30
535.552	32
535.604	38
535.657	40
535.709	34
535.761	30
535.814	36
535.866	30
535.918	28
535.971	32
536.023	42
536.075	40
536.128	28
536.18	34
536.232	32
536.285	36
536.337	32
536.389	36
536.442	32
536.494	32
536.546	32
536.599	28
536.651	36
536.703	32
536.755	26
536.808	36
536.86	28
536.912	40
536.965	30
537.017	40
537.069	30
537.122	36
537.174	24
537.226	36
537.279	32
537.331	34
537.383	34
537.436	30
537.488	30
537.54	26
537.593	28
537.645	34
537.697	38
537.75	36
537.802	32
537.854	28
537.906	40
537.959	30
538.011	26
538.063	32
538.116	28
538.168	32
538.22	32
538.273	28
538.325	40
538.377	32
538.43	30
538.482	26
538.534	30
538.586	30
538.639	28
538.691	36
538.743	28
538.796	34
538.848	34
538.9	24
538.953	30
539.005	24
539.057	24
539.109	26
539.162	34
539.214	36
539.266	32
539.319	30
539.371	34
539.423	34
539.476	28
539.528	32
539.58	36
539.633	34
539.685	26
539.737	26
539.789	40
539.842	22
539.894	26
539.946	32
539.999	32
540.051	32
540.103	30
540.155	24
540.208	28
540.26	36
540.312	30
540.365	30
540.417	36
540.469	34
540.521	34
540.574	28
540.626	36
540.678	34
540.731	32
540.783	30
540.835	38
540.888	36
540.94	30
540.992	28
541.044	28
541.097	36
541.149	32
541.201	22
541.254	26
541.306	36
541.358	34
541.41	28
541.463	28
541.515	36
541.567	36
541.62	24
541.672	30
541.724	36
541.776	36
541.829	28
541.881	30
541.933	38
541.985	30
542.038	30
542.09	34
542.142	34
542.195	30
542.247	30
542.299	28
542.351	38
542.404	30
542.456	24
542.508	14
542.56	36
542.613	34
542.665	36
542.717	30
542.77	34
542.822	30
542.874	26
542.926	32
542.979	34
543.031	32
543.083	30
543.135	26
543.188	38
543.24	36
543.292	36
543.344	26
543.397	32
543.449	32
543.501	34
543.554	34
543.606	38
543.658	28
543.71	30
543.763	34
543.815	38
543.867	36
543.919	30
543.972	26
544.024	40
544.076	32
544.128	38
544.181	24
544.233	34
544.285	30
544.337	36
544.39	26
544.442	42
544.494	40
544.547	38
544.599	28
544.651	34
544.703	34
544.755	30
544.808	36
544.86	34
544.912	28
544.965	38
545.017	32
545.069	32
545.121	38
545.174	36
545.226	30
545.278	34
545.33	28
545.383	36
545.435	36
545.487	32
545.539	34
545.591	34
545.644	32
545.696	28
545.748	38
545.8	44
545.853	36
545.905	38
545.957	44
546.009	36
546.062	24
546.114	36
546.166	32
546.218	40
546.271	34
546.323	36
546.375	40
546.427	34
546.48	36
546.532	32
546.584	48
546.636	40
546.689	42
546.741	34
546.793	42
546.845	42
546.898	38
546.95	32
547.002	42
547.054	46
547.106	20
547.159	42
547.211	40
547.263	42
547.315	32
547.368	38
547.42	42
547.472	46
547.524	32
547.577	32
547.629	42
547.681	48
547.733	34
547.785	34
547.838	42
547.89	42
547.942	32
547.994	40
548.047	40
548.099	38
548.151	36
548.203	32
548.255	42
548.308	40
548.36	36
548.412	38
548.464	52
548.517	34
548.569	32
548.621	38
548.673	40
548.725	46
548.778	34
548.83	28
548.882	44
548.934	42
548.987	38
549.039	38
549.091	42
549.143	48
549.195	50
549.248	32
549.3	44
549.352	44
549.404	46
549.456	32
549.509	36
549.561	46
549.613	42
549.665	36
549.718	36
549.77	54
549.822	42
549.874	34
549.926	42
549.979	38
550.031	52
550.083	38
550.135	44
550.187	46
550.24	44
550.292	40
550.344	48
550.396	50
550.448	40
550.501	44
550.553	36
550.605	52
550.657	60
550.709	42
550.762	46
550.814	54
550.866	58
550.918	50
550.97	50
551.023	52
551.075	50
551.127	54
551.179	50
551.231	56
551.284	66
551.336	66
551.388	52
551.44	66
551.492	62
551.545	60
551.597	66
551.649	78
551.701	84
551.753	74
551.806	70
551.858	76
551.91	84
551.962	88
552.014	106
552.067	114
552.119	122
552.171	148
552.223	164
552.275	220
552.327	280
552.38	446
552.432	892
552.484	1868
552.536	3364
552.588	5792
552.641	10672
552.693	16340
552.745	11042
552.797	4918
552.849	1924
552.901	720
552.954	414
553.006	296
553.058	208
553.11	180
553.162	144
553.215	120
553.267	102
553.319	92
553.371	94
553.423	80
553.475	78
553.528	76
553.58	70
553.632	76
553.684	66
553.736	70
553.788	64
553.841	62
553.893	54
553.945	58
553.997	60
554.049	60
554.102	58
554.154	50
554.206	56
554.258	48
554.31	48
554.362	52
554.414	48
554.467	56
554.519	56
554.571	54
554.623	48
554.675	48
554.727	48
554.78	36
554.832	50
554.884	52
554.936	36
554.988	38
555.04	60
555.093	42
555.145	48
555.197	48
555.249	50
555.301	54
555.353	52
555.406	48
555.458	46
555.51	54
555.562	44
555.614	44
555.666	54
555.719	54
555.771	54
555.823	40
555.875	50
555.927	48
555.979	46
556.031	46
556.084	54
556.136	54
556.188	52
556.24	50
556.292	48
556.344	52
556.396	46
556.449	42
556.501	42
556.553	44
556.605	58
556.657	46
556.709	52
556.762	48
556.814	48
556.866	44
556.918	48
556.97	56
557.022	46
557.074	48
557.127	54
557.179	52
557.231	56
557.283	50
557.335	44
557.387	50
557.439	46
557.492	50
557.544	48
557.596	40
557.648	52
557.7	34
557.752	40
557.804	50
557.856	50
557.909	40
557.961	50
558.013	52
558.065	50
558.117	48
558.169	46
558.221	58
558.273	48
558.326	44
558.378	54
558.43	42
558.482	52
558.534	46
558.586	40
558.638	46
558.691	42
558.743	44
558.795	54
558.847	54
558.899	52
558.951	48
559.003	46
559.055	50
559.108	60
559.16	44
559.212	48
559.264	56
559.316	48
559.368	48
559.42	54
559.472	62
559.525	46
559.577	44
559.629	48
559.681	60
559.733	56
559.785	56
559.837	42
559.889	56
559.941	52
559.994	50
560.046	44
560.098	56
560.15	56
560.202	46
560.254	54
560.306	48
560.358	48
560.41	54
560.463	50
560.515	58
560.567	54
560.619	62
560.671	50
560.723	62
560.775	54
560.827	50
560.879	42
560.932	46
560.984	56
561.036	58
561.088	60
561.14	54
561.192	54
561.244	56
561.296	54
561.348	44
561.4	56
561.453	54
561.505	50
561.557	56
561.609	56
561.661	58
561.713	50
561.765	50
561.817	64
561.869	54
561.921	54
561.974	46
562.026	52
562.078	52
562.13	58
562.182	46
562.234	46
562.286	62
562.338	54
562.39	58
562.442	70
562.494	60
562.547	54
562.599	52
562.651	52
562.703	48
562.755	50
562.807	58
562.859	54
562.911	54
562.963	56
563.015	56
563.067	62
563.12	58
563.172	52
563.224	52
563.276	68
563.328	48
563.38	56
563.432	62
563.484	52
563.536	52
563.588	52
563.64	52
563.692	66
563.744	60
563.797	62
563.849	58
563.901	64
563.953	58
564.005	52
564.057	56
564.109	62
564.161	68
564.213	66
564.265	54
564.317	62
564.369	66
564.421	52
564.474	56
564.526	62
564.578	60
564.63	66
564.682	58
564.734	68
564.786	58
564.838	68
564.89	66
564.942	64
564.994	62
565.046	70
565.098	56
565.15	70
565.202	60
565.255	68
565.307	62
565.359	56
565.411	60
565.463	60
565.515	72
565.567	58
565.619	70
565.671	58
565.723	46
565.775	66
565.827	68
565.879	58
565.931	58
565.983	68
566.035	66
566.087	56
566.139	64
566.192	62
566.244	60
566.296	66
566.348	62
566.4	58
566.452	64
566.504	64
566.556	52
566.608	56
566.66	56
566.712	72
566.764	64
566.816	60
566.868	72
566.92	64
566.972	52
567.024	62
567.076	66
567.128	66
567.18	68
567.232	52
567.285	68
567.337	64
567.389	68
567.441	66
567.493	74
567.545	66
567.597	64
567.649	64
567.701	72
567.753	66
567.805	70
567.857	70
567.909	74
567.961	64
568.013	64
568.065	70
568.117	79.92
568.169	69.9742
568.221	64.0405
568.273	58.3282
568.325	68.1758
568.377	70.0571
568.429	67.8591
568.481	70.0158
568.533	69.6461
568.585	70.959
568.637	63.7939
568.69	62.1029
568.742	77.1276
568.794	78.9124
568.846	72.0108
568.898	70.7388
568.95	68.7309
569.002	76.3698
569.054	65.764
569.106	66.1675
569.158	71.2951
569.21	72.6357
569.262	62.5593
569.314	67.5659
569.366	73.1952
569.418	67.2022
569.47	70.3108
569.522	67.1464
569.574	78.2021
569.626	74.0959
569.678	77.054
569.73	71.2581
569.782	75.2285
569.834	76.5385
569.886	79.6656
569.938	75.74
569.99	74.2193
570.042	76.6717
570.094	73.5232
570.146	80.9202
570.198	75.7686
570.25	73.5656
570.302	74.2402
570.354	75.687
570.406	74.7936
570.458	78.54
570.51	76.6027
570.562	75.6259
570.614	84.744
570.666	80.7038
570.718	80.6561
570.77	78.3357
570.822	78.9868
570.874	81.1
570.926	74.275
570.978	85.1355
571.03	82.2427
571.082	90.7331
571.134	82.8362
571.186	81.19
571.238	81.9055
571.29	87.8881
571.342	84.755
571.394	79.8087
571.446	82.4267
571.498	92.4565
571.55	84.6869
571.602	86.1
571.654	85.5254
571.706	89.9237
571.758	89.2696
571.81	90.8055
571.862	88.0807
571.914	88.0902
571.966	94.4758
572.018	91.3477
572.07	98.0639
572.122	97.9682
572.174	91.0758
572.226	99.9274
572.278	96.1416
572.33	97.1364
572.382	97.4
572.434	96.316
572.486	98.6292
572.538	104.119
572.59	93.6105
572.642	97.1995
572.694	95.5781
572.746	101.26
572.798	101.236
572.85	102.394
572.902	105.55
572.954	105.859
573.006	105.619
573.058	111.486
573.11	106.465
573.162	109.193
573.214	117.88
573.266	115.559
573.312	98
573.364	108
573.416	114
573.469	120
573.521	114
573.573	126
573.625	118
573.677	108
573.73	122
573.782	124
573.834	138
573.886	124
573.938	132
573.991	134
574.043	138
574.095	122
574.147	134
574.199	140
574.252	130
574.304	146
574.356	142
574.408	146
574.46	142
574.513	144
574.565	150
574.617	150
574.669	146
574.721	148
574.774	154
574.826	172
574.878	162
574.93	150
574.982	158
575.035	164
575.087	182
575.139	168
575.191	172
575.243	190
575.296	184
575.348	176
575.4	174
575.452	174
575.504	190
575.556	178
575.609	190
575.661	184
575.713	188
575.765	176
575.817	178
575.87	190
575.922	182
575.974	176
576.026	184
576.078	182
576.131	188
576.183	184
576.235	180
576.287	174
576.339	168
576.391	166
576.444	174
576.496	174
576.548	172
576.6	172
576.652	164
576.705	164
576.757	164
576.809	166
576.861	158
576.913	146
576.965	168
577.018	166
577.07	158
577.122	148
577.174	158
577.226	154
577.279	164
577.331	150
577.383	154
577.435	138
577.487	152
577.539	140
577.592	140
577.644	142
577.696	142
577.748	144
577.8	130
577.852	126
577.905	124
577.957	148
578.009	140
578.061	142
578.113	136
578.165	124
578.218	134
578.27	142
578.322	140
578.374	122
578.426	128
578.478	134
578.531	126
578.583	132
578.635	134
578.687	132
578.739	138
578.791	126
578.844	134
578.896	124
578.948	126
579	140
579.052	124
579.104	128
579.157	138
579.209	128
579.261	140
579.313	130
579.365	126
579.417	138
579.47	128
579.522	142
579.574	132
579.626	128
579.678	130
579.73	126
579.782	130
579.835	142
579.887	136
579.939	136
579.991	140
580.043	134
580.095	116
580.148	144
580.2	124
580.252	134
580.304	134
580.356	150
580.408	114
580.46	138
580.513	122
580.565	148
580.617	140
580.669	138
580.721	136
580.773	138
580.826	134
580.878	132
580.93	120
580.982	134
581.034	124
581.086	148
581.138	130
581.191	140
581.243	138
581.295	144
581.347	140
581.399	142
581.451	138
581.503	138
581.556	140
581.608	144
581.66	142
581.712	126
581.764	138
581.816	134
581.868	136
581.92	134
581.973	138
582.025	138
582.077	136
582.129	138
582.181	152
582.233	138
582.285	148
582.338	138
582.39	138
582.442	160
582.494	146
582.546	132
582.598	150
582.65	156
582.703	134
582.755	132
582.807	156
582.859	148
582.911	144
582.963	144
583.015	148
583.067	146
583.12	164
583.172	154
583.224	154
583.276	154
583.328	166
583.38	154
583.432	150
583.484	164
583.537	154
583.589	154
583.641	158
583.693	164
583.745	158
583.797	138
583.849	170
583.901	158
583.953	172
584.006	168
584.058	152
584.11	162
584.162	154
584.214	148
584.266	184
584.318	168
584.37	174
584.423	166
584.475	172
584.527	166
584.579	176
584.631	166
584.683	172
584.735	174
584.787	176
584.839	178
584.892	178
584.944	178
584.996	178
585.048	162
585.1	180
585.152	182
585.204	180
585.256	186
585.308	180
585.361	176
585.413	176
585.465	178
585.517	184
585.569	182
585.621	188
585.673	186
585.725	188
585.777	176
585.83	192
585.882	168
585.934	172
585.986	192
586.038	190
586.09	204
586.142	190
586.194	192
586.246	192
586.298	192
586.351	186
586.403	180
586.455	188
586.507	192
586.559	194
586.611	192
586.663	186
586.715	190
586.767	208
586.819	200
586.872	188
586.924	188
586.976	176
587.028	170
587.08	186
587.132	190
587.184	206
587.236	194
587.288	188
587.34	214
587.392	204
587.445	202
587.497	182
587.549	208
587.601	178
587.653	200
587.705	190
587.757	190
587.809	198
587.861	204
587.913	198
587.965	204
588.018	214
588.07	190
588.122	200
588.174	200
588.226	198
588.278	224
588.33	206
588.382	196
588.434	206
588.486	194
588.538	214
588.59	196
588.642	208
588.695	222
588.747	212
588.799	220
588.851	218
588.903	216
588.955	212
589.007	226
589.059	226
589.111	218
589.163	228
589.215	220
589.267	238
589.319	214
589.372	236
589.424	228
589.476	218
589.528	228
589.58	220
589.632	240
589.684	222
589.736	236
589.788	242
589.84	224
589.892	216
589.944	214
589.996	224
590.048	222
590.101	224
590.153	222
590.205	224
590.257	220
590.309	214
590.361	226
590.413	208
590.465	220
590.517	224
590.569	208
590.621	220
590.673	218
590.725	212
590.777	212
590.829	216
590.881	214
590.933	222
590.986	218
591.038	214
591.09	206
591.142	206
591.194	212
591.246	212
591.298	208
591.35	220
591.402	206
591.454	196
591.506	202
591.558	212
591.61	206
591.662	210
591.714	204
591.766	196
591.818	196
591.87	196
591.923	194
591.975	200
592.027	198
592.079	200
592.131	186
592.183	186
592.235	176
592.287	192
592.339	196
592.391	202
592.443	196
592.495	198
592.547	196
592.599	196
592.651	198
592.703	204
592.755	198
592.807	186
592.859	176
592.911	188
592.963	192
593.015	198
593.068	184
593.12	186
593.172	192
593.224	196
593.276	190
593.328	200
593.38	174
593.432	188
593.484	186
593.536	200
593.588	178
593.64	192
593.692	200
593.744	196
593.796	174
593.848	176
593.9	196
593.952	186
594.004	182
594.056	174
594.108	196
594.16	186
594.212	192
594.264	200
594.316	194
594.368	188
594.42	194
594.472	190
594.524	184
594.576	190
594.628	188
594.68	204
594.732	188
594.784	188
594.837	176
594.889	188
594.941	210
594.993	196
595.045	182
595.097	194
595.149	200
595.201	196
595.253	194
595.305	202
595.357	202
595.409	182
595.461	202
595.513	182
595.565	206
595.617	188
595.669	192
595.721	198
595.773	192
595.825	192
595.877	202
595.929	194
595.981	206
596.033	194
596.085	212
596.137	198
596.189	208
596.241	198
596.293	204
596.345	204
596.397	200
596.449	210
596.501	202
596.553	208
596.605	218
596.657	202
596.709	228
596.761	214
596.813	206
596.865	218
596.917	198
596.969	188
597.021	200
597.073	194
597.125	188
597.177	182
597.229	212
597.281	182
597.333	182
597.385	196
597.437	190
597.489	194
597.541	188
597.593	182
597.645	192
597.697	194
597.749	190
597.801	196
597.853	200
597.905	180
597.957	170
598.009	212
598.061	196
598.113	188
598.165	196
598.217	182
598.269	204
598.321	188
598.373	194
598.425	184
598.477	200
598.529	210
598.581	184
598.633	188
598.685	198
598.737	194
598.789	190
598.841	200
598.893	198
598.945	192
598.997	176
599.049	198
599.101	190
599.153	188
599.205	190
599.257	184
599.309	202
599.361	190
599.413	198
599.465	196
599.517	184
599.569	210
599.62	188
599.672	198
599.724	186
599.776	178
599.828	190
599.88	178
599.932	198
599.984	190
600.036	180
600.088	194
600.14	176
600.192	192
600.244	176
