#Acq. time (s)=	3
#Accumulations=	2
#Range (nm)=	520...900
#Windows=	8
#Auto scanning=	Off
#Autofocus=	Off
#AutoExposure=	Off
#Spike filter=	Multiple accum.
#Delay time (s)=	0
#Binning=	1
#Readout mode=	Signal
#DeNoise=	Off
#ICS correction=	Off
#Dark correction=	Off
#Inst. Process=	Off
#Detector temperature (°C)=	-59.98
#Instrument=	LabRAM HR Evol
#Detector=	Syncerity OE
#Objective=	x50_VIS
#Grating=	600 (500nm)
#ND Filter=	10%
#Laser=	514nm_Edge
#Hole=	199.981
#Range=	Auto
#StageXY=	Marzhauser
#StageZ=	Marzhauser
#X (µm)=	0
#Y (µm)=	0
#Z (µm)=	0
#Full time(mm:ss)=	1:32
#Project=	
#Sample=	
#Site=	
#Title=	M6_270224
#Remark=	
#Date=	06.03.2024 10:23
#Acquired=	06.03.2024 10:23:55
520.044	34
520.097	28
520.149	16
520.201	18
520.254	30
520.306	26
520.359	24
520.411	34
520.464	26
520.516	28
520.569	16
520.621	26
520.674	22
520.726	22
520.778	28
520.831	24
520.883	32
520.936	24
520.988	28
521.041	22
521.093	28
521.146	22
521.198	20
521.25	22
521.303	30
521.355	24
521.408	28
521.46	24
521.513	28
521.565	26
521.617	22
521.67	30
521.722	28
521.775	30
521.827	24
521.88	20
521.932	20
521.984	32
522.037	24
522.089	24
522.142	26
522.194	26
522.247	26
522.299	20
522.352	30
522.404	32
522.456	12
522.509	26
522.561	24
522.614	28
522.666	24
522.719	28
522.771	24
522.823	26
522.876	22
522.928	24
522.981	30
523.033	24
523.086	26
523.138	22
523.19	28
523.243	30
523.295	22
523.348	20
523.4	30
523.453	26
523.505	18
523.557	22
523.61	26
523.662	30
523.715	20
523.767	20
523.82	34
523.872	26
523.924	22
523.977	22
524.029	24
524.082	40
524.134	26
524.186	20
524.239	30
524.291	26
524.344	24
524.396	24
524.449	28
524.501	36
524.553	20
524.606	24
524.658	24
524.711	26
524.763	32
524.815	24
524.868	30
524.92	36
524.973	30
525.025	22
525.078	22
525.13	28
525.182	28
525.235	26
525.287	30
525.34	32
525.392	30
525.444	22
525.497	16
525.549	32
525.602	22
525.654	22
525.706	24
525.759	32
525.811	30
525.864	22
525.916	30
525.969	22
526.021	32
526.073	24
526.126	26
526.178	30
526.231	26
526.283	22
526.335	26
526.388	28
526.44	26
526.493	20
526.545	20
526.597	24
526.65	22
526.702	24
526.755	28
526.807	22
526.859	26
526.912	18
526.964	28
527.017	28
527.069	30
527.121	18
527.174	24
527.226	26
527.279	32
527.331	24
527.383	24
527.436	26
527.488	28
527.54	28
527.593	26
527.645	30
527.698	32
527.75	22
527.802	22
527.855	30
527.907	24
527.96	26
528.012	28
528.064	26
528.117	36
528.169	30
528.222	26
528.274	34
528.326	26
528.379	16
528.431	24
528.484	30
528.536	36
528.588	24
528.641	22
528.693	28
528.745	32
528.798	32
528.85	28
528.903	26
528.955	38
529.007	24
529.06	22
529.112	30
529.164	30
529.217	26
529.269	24
529.322	24
529.374	32
529.426	26
529.479	32
529.531	28
529.584	28
529.636	26
529.688	22
529.741	26
529.793	30
529.845	28
529.898	30
529.95	18
530.003	30
530.055	30
530.107	28
530.16	24
530.212	34
530.264	32
530.317	24
530.369	24
530.422	30
530.474	26
530.526	28
530.579	18
530.631	36
530.683	24
530.736	28
530.788	20
530.841	32
530.893	28
530.945	32
530.998	18
531.05	28
531.102	26
531.155	32
531.207	26
531.259	26
531.312	32
531.364	26
531.417	18
531.469	34
531.521	32
531.574	20
531.626	36
531.678	28
531.731	36
531.783	26
531.835	24
531.888	28
531.94	28
531.992	28
532.045	24
532.097	34
532.15	26
532.202	28
532.254	22
532.307	32
532.359	34
532.411	26
532.464	38
532.516	34
532.568	32
532.621	32
532.673	28
532.726	34
532.778	22
532.83	24
532.883	30
532.935	38
532.987	36
533.04	32
533.092	26
533.144	28
533.197	32
533.249	34
533.301	30
533.354	32
533.406	32
533.458	26
533.511	24
533.563	24
533.615	32
533.668	32
533.72	24
533.773	28
533.825	34
533.877	34
533.93	32
533.982	24
534.034	34
534.087	34
534.139	26
534.191	32
534.244	38
534.296	22
534.348	22
534.401	26
534.453	34
534.505	26
534.558	24
534.61	20
534.662	26
534.715	26
534.767	26
534.819	24
534.872	30
534.924	38
534.976	30
535.029	28
535.081	42
535.133	28
535.186	26
535.238	32
535.29	36
535.343	36
535.395	26
535.447	34
535.5	36
535.552	28
535.604	20
535.657	24
535.709	32
535.761	32
535.814	26
535.866	24
535.918	28
535.971	36
536.023	36
536.075	34
536.128	32
536.18	44
536.232	32
536.285	26
536.337	32
536.389	28
536.442	32
536.494	34
536.546	34
536.599	34
536.651	34
536.703	32
536.755	30
536.808	32
536.86	28
536.912	36
536.965	26
537.017	40
537.069	36
537.122	34
537.174	32
537.226	30
537.279	38
537.331	30
537.383	24
537.436	36
537.488	24
537.54	32
537.593	34
537.645	36
537.697	34
537.75	30
537.802	30
537.854	38
537.906	34
537.959	26
538.011	22
538.063	36
538.116	28
538.168	28
538.22	32
538.273	36
538.325	22
538.377	32
538.43	28
538.482	32
538.534	32
538.586	28
538.639	28
538.691	32
538.743	26
538.796	30
538.848	26
538.9	38
538.953	36
539.005	32
539.057	28
539.109	40
539.162	42
539.214	24
539.266	28
539.319	34
539.371	40
539.423	26
539.476	26
539.528	38
539.58	26
539.633	22
539.685	24
539.737	28
539.789	36
539.842	30
539.894	24
539.946	34
539.999	34
540.051	26
540.103	30
540.155	28
540.208	38
540.26	32
540.312	32
540.365	28
540.417	26
540.469	34
540.521	32
540.574	30
540.626	38
540.678	32
540.731	30
540.783	34
540.835	34
540.888	42
540.94	36
540.992	30
541.044	36
541.097	34
541.149	30
541.201	34
541.254	32
541.306	34
541.358	28
541.41	26
541.463	30
541.515	30
541.567	36
541.62	30
541.672	30
541.724	34
541.776	32
541.829	34
541.881	34
541.933	32
541.985	30
542.038	24
542.09	30
542.142	34
542.195	24
542.247	32
542.299	40
542.351	36
542.404	36
542.456	34
542.508	34
542.56	32
542.613	28
542.665	28
542.717	40
542.77	32
542.822	26
542.874	28
542.926	30
542.979	34
543.031	22
543.083	32
543.135	34
543.188	34
543.24	32
543.292	20
543.344	34
543.397	32
543.449	24
543.501	30
543.554	36
543.606	34
543.658	28
543.71	30
543.763	32
543.815	42
543.867	34
543.919	32
543.972	36
544.024	28
544.076	28
544.128	28
544.181	36
544.233	38
544.285	24
544.337	26
544.39	34
544.442	32
544.494	28
544.547	36
544.599	38
544.651	38
544.703	36
544.755	34
544.808	34
544.86	36
544.912	30
544.965	38
545.017	32
545.069	44
545.121	34
545.174	34
545.226	18
545.278	32
545.33	38
545.383	30
545.435	28
545.487	38
545.539	44
545.591	28
545.644	34
545.696	38
545.748	36
545.8	36
545.853	26
545.905	42
545.957	38
546.009	34
546.062	24
546.114	38
546.166	34
546.218	32
546.271	30
546.323	46
546.375	28
546.427	36
546.48	26
546.532	30
546.584	40
546.636	34
546.689	32
546.741	44
546.793	30
546.845	32
546.898	30
546.95	38
547.002	32
547.054	26
547.106	38
547.159	36
547.211	34
547.263	38
547.315	32
547.368	40
547.42	36
547.472	24
547.524	36
547.577	36
547.629	34
547.681	30
547.733	38
547.785	34
547.838	40
547.89	34
547.942	20
547.994	40
548.047	40
548.099	22
548.151	42
548.203	38
548.255	40
548.308	38
548.36	32
548.412	42
548.464	34
548.517	26
548.569	36
548.621	38
548.673	42
548.725	42
548.778	38
548.83	42
548.882	40
548.934	32
548.987	34
549.039	34
549.091	42
549.143	40
549.195	38
549.248	44
549.3	40
549.352	42
549.404	38
549.456	34
549.509	54
549.561	38
549.613	34
549.665	28
549.718	38
549.77	46
549.822	36
549.874	28
549.926	38
549.979	46
550.031	36
550.083	36
550.135	38
550.187	42
550.24	38
550.292	38
550.344	46
550.396	42
550.448	42
550.501	34
550.553	42
550.605	36
550.657	40
550.709	46
550.762	44
550.814	40
550.866	46
550.918	38
550.97	52
551.023	44
551.075	48
551.127	46
551.179	50
551.231	52
551.284	58
551.336	48
551.388	56
551.44	50
551.492	56
551.545	52
551.597	72
551.649	56
551.701	66
551.753	74
551.806	78
551.858	84
551.91	94
551.962	86
552.014	108
552.067	110
552.119	122
552.171	142
552.223	168
552.275	218
552.327	250
552.38	400
552.432	844
552.484	1742
552.536	3168
552.588	5524
552.641	10330
552.693	14992
552.745	10162
552.797	4732
552.849	1768
552.901	692
552.954	372
553.006	258
553.058	206
553.11	148
553.162	134
553.215	108
553.267	96
553.319	90
553.371	92
553.423	82
553.475	78
553.528	66
553.58	64
553.632	60
553.684	64
553.736	60
553.788	66
553.841	52
553.893	56
553.945	54
553.997	64
554.049	46
554.102	50
554.154	50
554.206	52
554.258	52
554.31	54
554.362	56
554.414	50
554.467	52
554.519	36
554.571	46
554.623	46
554.675	38
554.727	48
554.78	54
554.832	52
554.884	36
554.936	42
554.988	44
555.04	44
555.093	44
555.145	36
555.197	46
555.249	48
555.301	44
555.353	38
555.406	42
555.458	48
555.51	40
555.562	34
555.614	40
555.666	38
555.719	40
555.771	34
555.823	42
555.875	46
555.927	34
555.979	26
556.031	44
556.084	40
556.136	30
556.188	38
556.24	38
556.292	48
556.344	42
556.396	40
556.449	42
556.501	48
556.553	38
556.605	54
556.657	44
556.709	46
556.762	38
556.814	42
556.866	42
556.918	44
556.97	46
557.022	40
557.074	40
557.127	46
557.179	46
557.231	42
557.283	42
557.335	42
557.387	46
557.439	44
557.492	40
557.544	52
557.596	40
557.648	42
557.7	40
557.752	44
557.804	38
557.856	34
557.909	44
557.961	42
558.013	40
558.065	38
558.117	36
558.169	40
558.221	40
558.273	40
558.326	48
558.378	48
558.43	44
558.482	42
558.534	30
558.586	46
558.638	48
558.691	38
558.743	38
558.795	42
558.847	48
558.899	38
558.951	44
559.003	42
559.055	42
559.108	44
559.16	38
559.212	44
559.264	38
559.316	34
559.368	42
559.42	40
559.472	50
559.525	40
559.577	38
559.629	46
559.681	46
559.733	48
559.785	34
559.837	52
559.889	46
559.941	40
559.994	32
560.046	54
560.098	54
560.15	42
560.202	36
560.254	46
560.306	48
560.358	46
560.41	36
560.463	52
560.515	44
560.567	44
560.619	48
560.671	42
560.723	54
560.775	42
560.827	50
560.879	46
560.932	44
560.984	44
561.036	42
561.088	52
561.14	50
561.192	44
561.244	40
561.296	46
561.348	46
561.4	48
561.453	40
561.505	36
561.557	56
561.609	48
561.661	48
561.713	42
561.765	46
561.817	44
561.869	46
561.921	48
561.974	54
562.026	50
562.078	46
562.13	48
562.182	50
562.234	46
562.286	44
562.338	50
562.39	46
562.442	42
562.494	44
562.547	38
562.599	50
562.651	50
562.703	40
562.755	46
562.807	58
562.859	48
562.911	46
562.963	40
563.015	50
563.067	54
563.12	40
563.172	52
563.224	52
563.276	38
563.328	42
563.38	50
563.432	48
563.484	44
563.536	42
563.588	44
563.64	54
563.692	44
563.744	56
563.797	54
563.849	50
563.901	56
563.953	54
564.005	40
564.057	56
564.109	46
564.161	48
564.213	54
564.265	54
564.317	46
564.369	42
564.421	46
564.474	60
564.526	48
564.578	48
564.63	46
564.682	46
564.734	52
564.786	48
564.838	52
564.89	44
564.942	46
564.994	44
565.046	52
565.098	52
565.15	50
565.202	40
565.255	48
565.307	42
565.359	54
565.411	44
565.463	46
565.515	46
565.567	54
565.619	60
565.671	50
565.723	40
565.775	48
565.827	52
565.879	52
565.931	58
565.983	56
566.035	56
566.087	56
566.139	54
566.192	48
566.244	56
566.296	46
566.348	42
566.4	60
566.452	54
566.504	44
566.556	46
566.608	58
566.66	52
566.712	42
566.764	48
566.816	60
566.868	58
566.92	44
566.972	60
567.024	48
567.076	60
567.128	60
567.18	48
567.232	60
567.285	52
567.337	50
567.389	52
567.441	62
567.493	56
567.545	50
567.597	48
567.649	60
567.701	50
567.753	42
567.805	44
567.857	52
567.909	60
567.961	48
568.013	50
568.065	66
568.117	62.03
568.169	56.1639
568.221	57.9874
568.273	53.8969
568.325	58.5908
568.377	63.3482
568.429	44.78
568.481	53.9203
568.533	50.344
568.585	54.1891
568.637	59.4745
568.69	55.4317
568.742	62.2395
568.794	57.9849
568.846	52.8917
568.898	56.789
568.95	55.7552
569.002	60.3721
569.054	58.37
569.106	49.8015
569.158	61.95
569.21	52.8198
569.262	58.9444
569.314	60.0673
569.366	58.1574
569.418	61.5555
569.47	53.8185
569.522	56.3964
569.574	64.0263
569.626	62.933
569.678	59.0711
569.73	62.7028
569.782	56.8428
569.834	59.5993
569.886	55.0341
569.938	59.8729
569.99	61.7803
570.042	61.9065
570.094	50.8035
570.146	56.6157
570.198	58.5676
570.25	62.468
570.302	57.0089
570.354	61.0448
570.406	65.5129
570.458	60.5099
570.51	60.1493
570.562	66.5252
570.614	67.705
570.666	64.2604
570.718	63.01
570.77	58.4414
570.822	62.6763
570.874	65.66
570.926	62.2938
570.978	68.6291
571.03	60.0964
571.082	57.5405
571.134	63.3911
571.186	67.3374
571.238	68.74
571.29	67.6288
571.342	70.854
571.394	66.1913
571.446	68.13
571.498	70.8222
571.55	65.136
571.602	72.6617
571.654	65.89
571.706	64.8737
571.758	60.6777
571.81	67.0855
571.862	67.9255
571.914	74.0399
571.966	69.1919
572.018	65.3569
572.07	70.6846
572.122	71.5664
572.174	71.6189
572.226	70.5725
572.278	66.3239
572.33	69.8827
572.382	78.0211
572.434	69.6082
572.486	72.4431
572.538	71.5682
572.59	77.663
572.642	75.9521
572.694	80.2238
572.746	74.2153
572.798	82.7621
572.85	69.5088
572.902	75.0039
572.954	79.5084
573.006	88.3227
573.058	77.4868
573.11	85.6752
573.162	83.7528
573.214	80.7285
573.266	83.5457
573.312	80
573.364	84
573.416	88
573.469	90
573.521	100
573.573	88
573.625	88
573.677	90
573.73	96
573.782	86
573.834	104
573.886	108
573.938	106
573.991	94
574.043	96
574.095	102
574.147	108
574.199	88
574.252	110
574.304	106
574.356	108
574.408	108
574.46	108
574.513	104
574.565	116
574.617	112
574.669	124
574.721	114
574.774	124
574.826	118
574.878	122
574.93	134
574.982	124
575.035	114
575.087	136
575.139	122
575.191	148
575.243	112
575.296	122
575.348	132
575.4	138
575.452	120
575.504	134
575.556	136
575.609	136
575.661	140
575.713	118
575.765	134
575.817	134
575.87	120
575.922	136
575.974	138
576.026	134
576.078	128
576.131	124
576.183	140
576.235	126
576.287	124
576.339	126
576.391	132
576.444	110
576.496	126
576.548	120
576.6	118
576.652	128
576.705	126
576.757	120
576.809	116
576.861	114
576.913	118
576.965	116
577.018	120
577.07	108
577.122	116
577.174	112
577.226	104
577.279	116
577.331	114
577.383	100
577.435	112
577.487	104
577.539	100
577.592	94
577.644	110
577.696	96
577.748	94
577.8	90
577.852	110
577.905	102
577.957	110
578.009	106
578.061	108
578.113	112
578.165	94
578.218	92
578.27	112
578.322	100
578.374	106
578.426	88
578.478	100
578.531	96
578.583	90
578.635	88
578.687	98
578.739	96
578.791	98
578.844	92
578.896	88
578.948	98
579	102
579.052	88
579.104	102
579.157	98
579.209	110
579.261	106
579.313	98
579.365	100
579.417	94
579.47	92
579.522	90
579.574	106
579.626	108
579.678	104
579.73	102
579.782	104
579.835	106
579.887	102
579.939	102
579.991	112
580.043	112
580.095	102
580.148	98
580.2	110
580.252	100
580.304	104
580.356	98
580.408	100
580.46	98
580.513	98
580.565	106
580.617	100
580.669	98
580.721	96
580.773	102
580.826	104
580.878	102
580.93	98
580.982	96
581.034	106
581.086	104
581.138	118
581.191	92
581.243	108
581.295	110
581.347	112
581.399	96
581.451	124
581.503	110
581.556	104
581.608	106
581.66	114
581.712	116
581.764	108
581.816	100
581.868	108
581.92	112
581.973	112
582.025	100
582.077	104
582.129	106
582.181	102
582.233	110
582.285	126
582.338	112
582.39	120
582.442	114
582.494	114
582.546	112
582.598	112
582.65	98
582.703	122
582.755	114
582.807	116
582.859	116
582.911	116
582.963	104
583.015	118
583.067	108
583.12	112
583.172	118
583.224	134
583.276	108
583.328	124
583.38	130
583.432	110
583.484	116
583.537	120
583.589	122
583.641	120
583.693	108
583.745	124
583.797	126
583.849	118
583.901	124
583.953	122
584.006	116
584.058	126
584.11	122
584.162	122
584.214	136
584.266	126
584.318	120
584.37	126
584.423	144
584.475	134
584.527	130
584.579	122
584.631	136
584.683	134
584.735	142
584.787	130
584.839	124
584.892	140
584.944	138
584.996	136
585.048	140
585.1	138
585.152	132
585.204	134
585.256	140
585.308	136
585.361	142
585.413	132
585.465	142
585.517	144
585.569	144
585.621	122
585.673	136
585.725	140
585.777	142
585.83	140
585.882	158
585.934	140
585.986	146
586.038	144
586.09	156
586.142	144
586.194	146
586.246	134
586.298	154
586.351	148
586.403	154
586.455	146
586.507	152
586.559	150
586.611	144
586.663	142
586.715	150
586.767	166
586.819	148
586.872	148
586.924	142
586.976	148
587.028	142
587.08	152
587.132	158
587.184	148
587.236	158
587.288	154
587.34	148
587.392	154
587.445	150
587.497	146
587.549	148
587.601	162
587.653	150
587.705	158
587.757	154
587.809	150
587.861	152
587.913	158
587.965	150
588.018	162
588.07	162
588.122	164
588.174	162
588.226	164
588.278	156
588.33	164
588.382	156
588.434	162
588.486	156
588.538	172
588.59	146
588.642	180
588.695	166
588.747	168
588.799	166
588.851	168
588.903	150
588.955	164
589.007	156
589.059	172
589.111	182
589.163	178
589.215	182
589.267	182
589.319	184
589.372	178
589.424	164
589.476	192
589.528	188
589.58	194
589.632	158
589.684	180
589.736	186
589.788	186
589.84	176
589.892	188
589.944	182
589.996	184
590.048	168
590.101	186
590.153	180
590.205	166
590.257	184
590.309	164
590.361	176
590.413	186
590.465	174
590.517	156
590.569	172
590.621	164
590.673	160
590.725	184
590.777	166
590.829	176
590.881	152
590.933	160
590.986	170
591.038	168
591.09	170
591.142	162
591.194	160
591.246	172
591.298	164
591.35	162
591.402	162
591.454	154
591.506	146
591.558	140
591.61	150
591.662	140
591.714	148
591.766	136
591.818	146
591.87	148
591.923	152
591.975	146
592.027	148
592.079	142
592.131	144
592.183	146
592.235	150
592.287	142
592.339	148
592.391	128
592.443	140
592.495	144
592.547	144
592.599	130
592.651	142
592.703	152
592.755	144
592.807	132
592.859	152
592.911	138
592.963	146
593.015	128
593.068	156
593.12	136
593.172	148
593.224	156
593.276	142
593.328	126
593.38	140
593.432	128
593.484	140
593.536	136
593.588	118
593.64	122
593.692	146
593.744	140
593.796	150
593.848	128
593.9	148
593.952	158
594.004	158
594.056	134
594.108	138
594.16	156
594.212	146
594.264	128
594.316	154
594.368	140
594.42	158
594.472	122
594.524	156
594.576	138
594.628	136
594.68	152
594.732	150
594.784	150
594.837	150
594.889	146
594.941	138
594.993	146
595.045	136
595.097	144
595.149	138
595.201	146
595.253	152
595.305	150
595.357	146
595.409	152
595.461	152
595.513	140
595.565	150
595.617	134
595.669	160
595.721	142
595.773	134
595.825	148
595.877	154
595.929	140
595.981	142
596.033	150
596.085	152
596.137	140
596.189	152
596.241	150
596.293	146
596.345	152
596.397	162
596.449	166
596.501	154
596.553	160
596.605	156
596.657	178
596.709	166
596.761	174
596.813	160
596.865	168
596.917	158
596.969	150
597.021	142
597.073	160
597.125	138
597.177	146
597.229	126
597.281	138
597.333	136
597.385	128
597.437	130
597.489	146
597.541	146
597.593	148
597.645	144
597.697	142
597.749	150
597.801	138
597.853	124
597.905	142
597.957	152
598.009	158
598.061	134
598.113	134
598.165	148
598.217	134
598.269	132
598.321	144
598.373	152
598.425	138
598.477	142
598.529	138
598.581	140
598.633	130
598.685	130
598.737	138
598.789	144
598.841	146
598.893	138
598.945	140
598.997	142
599.049	138
599.101	134
599.153	146
599.205	140
599.257	148
599.309	144
599.361	152
599.413	150
599.465	146
599.517	134
599.569	136
599.62	140
599.672	154
599.724	146
599.776	128
599.828	142
599.88	158
599.932	116
599.984	144
600.036	130
600.088	150
600.14	144
600.192	130
600.244	148
600.296	138
600.348	138
600.4	138
