#Acq. time (s)=	2
#Accumulations=	3
#Range (nm)=	520...900
#Windows=	24
#Auto scanning=	On
#Autofocus=	Off
#AutoExposure=	Off
#Spike filter=	Multiple accum.
#Delay time (s)=	0
#Binning=	1
#Readout mode=	Signal
#DeNoise=	Off
#ICS correction=	Off
#Dark correction=	Off
#Inst. Process=	Off
#Detector temperature (°C)=	-59.98
#Instrument=	LabRAM HR Evol
#Detector=	Syncerity OE
#Objective=	x50_VIS
#Grating=	600 (500nm)
#ND Filter=	25%
#Laser=	514nm_Edge
#Hole=	199.981
#Range=	Auto
#StageXY=	Marzhauser
#StageZ=	Marzhauser
#X (µm)=	-14729.6
#Y (µm)=	7396.1
#Z (µm)=	-433.4
#Full time(mm:ss)=	3:04
#Project=	
#Sample=	
#Site=	
#Title=	M7_140224
#Remark=	
#Date=	19.02.2024 14:52
#Acquired=	19.02.2024 14:52:40
520.013	32.7925
520.065	32.5347
520.117	29.2486
520.17	30.5642
520.222	30.1833
520.274	28.6574
520.327	27.2463
520.379	28
520.431	29.007
520.483	31.6546
520.536	30.2688
520.588	28.2541
520.64	27.7599
520.693	27.1416
520.745	31.8975
520.797	26.2944
520.85	29.3481
520.902	28.8447
520.954	28.2002
521.007	32.1827
521.059	29.9757
521.111	29.4989
521.163	32.0046
521.216	30.1555
521.268	29.5281
521.32	29.9443
521.373	31.0995
521.425	30.3371
521.477	31.3698
521.529	28.4615
521.582	31.4142
521.634	24.4559
521.686	30.03
521.739	28.6993
521.791	27.1934
521.843	27.4451
521.896	32.6382
521.948	31.0472
522	29.5028
522.052	25.6611
522.105	27.7227
522.157	32.7639
522.209	30.2344
522.262	30.7939
522.314	29.0912
522.366	26.6315
522.418	31.1261
522.471	28.4527
522.523	30.7649
522.575	32.1095
522.628	30.3231
522.68	28.0214
522.732	28.5154
522.784	25.6681
522.837	27.0631
522.889	29.3849
522.941	27.5987
522.994	31.5391
523.046	29.4241
523.098	28.5219
523.15	27.9729
523.203	27.8989
523.255	28.1736
523.307	27.3565
523.36	29.9904
523.412	29.7139
523.464	30.4732
523.516	29.8473
523.569	27.6879
523.621	33.2069
523.673	28.1885
523.726	27.8589
523.778	28.0824
523.83	34.1519
523.882	29.3425
523.935	28.0057
523.987	29.1442
524.039	30.8356
524.091	27.5144
524.144	30.3605
524.196	26.3488
524.248	29.1977
524.301	28.042
524.353	31.2968
524.405	30.9166
524.457	32.6995
524.51	32.4886
524.562	26.3514
524.614	28.3066
524.666	31.5906
524.719	23.3236
524.771	28.3667
524.823	33.7045
524.875	32.5243
524.928	31.8005
524.98	27.1437
525.032	28.6865
525.085	30.6688
525.137	29.1532
525.189	31.0062
525.241	28.4981
525.294	32
525.346	32.8073
525.398	26.7619
525.45	27.1117
525.503	28.3349
525.555	29.1509
525.607	29.9676
525.659	28.6988
525.712	31.5904
525.764	29.4679
525.816	27.4289
525.868	32.3195
525.921	31.188
525.973	30.2086
526.025	26
526.077	26.4416
526.13	27.7982
526.182	27.5222
526.234	29.2191
526.286	29.7928
526.339	30.0078
526.391	27.4788
526.443	27.3333
526.495	28.1856
526.548	29.4028
526.6	28.2424
526.652	25.2421
526.704	30.2183
526.757	32.509
526.809	28.022
526.861	26.6439
526.913	31.0769
526.966	31.1487
527.018	27.4779
527.07	26.8764
527.122	28.0692
527.175	30.1716
527.227	28.6031
527.279	26.7841
527.331	31.9996
527.384	28.1327
527.436	28.5091
527.488	28.1492
527.54	28.0768
527.593	28.1783
527.645	28.0319
527.697	30.4015
527.749	33.3203
527.802	27.9677
527.854	28.1818
527.906	29.9205
527.958	33.5124
528.011	28.1027
528.063	25.1125
528.115	24.532
528.167	29.5596
528.219	25.5401
528.272	27.9135
528.324	26.1951
528.376	29.2393
528.428	25.6205
528.481	26.0966
528.533	26.7432
528.585	31.7519
528.637	26.0493
528.69	28.2968
528.742	24.7366
528.794	33.4403
528.846	31.4545
528.898	28.5566
528.951	31.4666
529.003	34.7033
529.055	24.5765
529.107	27.1506
529.16	27.6359
529.212	29.0014
529.264	32.5732
529.316	27.054
529.369	27.1375
529.421	29.8624
529.473	25.6943
529.525	26.2487
529.577	29.9876
529.63	28.7342
529.682	30.1876
529.734	27.8148
529.786	31.2453
529.839	29.6963
529.891	25.7974
529.943	25.8633
529.995	31.927
530.047	31.7718
530.1	25.7827
530.152	26.7214
530.204	27.3659
530.256	31.4759
530.308	30.3888
530.361	27.6193
530.413	29.9076
530.465	29.5948
530.517	28.6257
530.57	22.2488
530.622	32.2633
530.674	30.0491
530.726	23.4462
530.778	24.7477
530.831	32.9485
530.883	25.2273
530.935	26.952
530.987	29.8575
531.039	30.7565
531.092	25.6206
531.144	24.7133
531.196	29.4055
531.248	33.0628
531.3	26.4298
531.353	28.182
531.405	28.7298
531.457	30.091
531.509	27.1157
531.561	28.9199
531.614	30.5294
531.666	32.9364
531.718	25.2129
531.77	26.126
531.822	28.7692
531.875	25.6547
531.927	24.76
531.979	28.0469
532.031	29.4285
532.083	35.0189
532.136	32.0401
532.188	28.4932
532.24	26.6155
532.292	29.4413
532.344	27.1717
532.397	29.8153
532.449	22.6089
532.501	32.0399
532.553	26.9883
532.605	27.164
532.658	26.4091
532.71	29.358
532.762	26.5114
532.814	27.6215
532.866	28.4735
532.919	30.3834
532.971	29.0656
533.023	27.2905
533.075	30.7351
533.127	30.7777
533.179	30.863
533.232	28.3091
533.284	28.3418
533.336	31.0392
533.388	27.3355
533.44	23.8107
533.493	28.3576
533.545	29.4398
533.597	30.9307
533.649	26.6547
533.701	29.5437
533.753	31.8307
533.806	29.6421
533.858	25.7446
533.91	29.7672
533.962	30.6945
534.014	28.7459
534.067	28.9927
534.119	30.1865
534.171	28.8544
534.223	26.678
534.275	28.0603
534.327	29.7816
534.38	29.575
534.432	30.0405
534.484	30.022
534.536	29.9582
534.588	29.4647
534.641	31.515
534.693	29.134
534.745	34.5178
534.797	30.9142
534.849	22.289
534.901	27.5942
534.953	29.721
535.006	29.4549
535.058	29.5336
535.11	30.5247
535.162	31.8077
535.214	28.7352
535.267	24.9234
535.319	29.6274
535.371	32.1538
535.423	30.0033
535.475	26.644
535.527	27.9034
535.58	32.0609
535.632	28.6357
535.684	29.5295
535.736	35.3296
535.788	37.1878
535.84	28.0817
535.892	26.529
535.945	32.8811
535.997	34.0984
536.049	29.6631
536.101	31.8613
536.153	31.6253
536.205	31.5595
536.258	28.7356
536.31	26.6104
536.362	36.1409
536.414	32.5172
536.466	28.2659
536.518	29.7803
536.57	33.6332
536.623	35.8848
536.675	32.6455
536.727	29.066
536.779	30.8952
536.831	35.2042
536.883	31.0224
536.936	28.5621
536.988	30.8875
537.04	32.241
537.092	29.671
537.144	33.0583
537.196	33.1126
537.248	27.9278
537.301	28.0087
537.353	22.8279
537.405	31.1973
537.457	28.0467
537.509	26.809
537.561	28.0509
537.613	30.0209
537.666	37.6635
537.718	33.1069
537.77	30.1502
537.778	29.6797
537.831	29.9947
537.883	27.1718
537.935	28.1411
537.987	26.4789
538.04	27.6599
538.092	30.9937
538.144	29.9892
538.196	27.7311
538.249	34.9843
538.301	31.82
538.353	28.4726
538.405	30.2269
538.457	30.9593
538.51	28.4876
538.562	35.0328
538.614	30.3817
538.666	34.397
538.719	26.3822
538.771	32.3835
538.823	29.3341
538.875	34.2058
538.927	30.5736
538.98	27.6627
539.032	27.3014
539.084	33.0118
539.136	31.9915
539.189	21.3828
539.241	29.3937
539.293	32.6806
539.345	30.4126
539.397	24.5314
539.45	30.3785
539.502	28.5668
539.554	26.5168
539.606	23.4365
539.659	30.3132
539.711	29.7641
539.763	30.6362
539.815	26.1975
539.867	26.2887
539.92	30.8282
539.972	27.401
540.024	29.295
540.076	34.059
540.128	25.4745
540.181	26.0618
540.233	29.2059
540.285	28.8914
540.337	29.7539
540.39	28.5512
540.442	26.349
540.494	31.976
540.546	29.4743
540.598	26.8554
540.651	26.5089
540.703	33.9549
540.755	28.1222
540.807	27.6935
540.859	26.3256
540.912	30.9651
540.964	31.6891
541.016	30.3156
541.068	29.0718
541.12	22.5033
541.173	32.6576
541.225	27.3282
541.277	27.7606
541.329	33.773
541.381	31.3246
541.434	30.4149
541.486	22.7359
541.538	27.2446
541.59	34.4143
541.642	27.5041
541.695	26.1467
541.747	33.3561
541.799	27.3017
541.851	31.2581
541.903	25.5896
541.956	30.778
542.008	29.2273
542.06	32.015
542.112	23.6575
542.164	32.0845
542.217	26.318
542.269	25.2359
542.321	24.9778
542.373	28.2352
542.425	29.6678
542.478	29.0787
542.53	30.012
542.582	27.7104
542.634	30.6445
542.686	25.4123
542.738	23.5712
542.791	34.2256
542.843	31.2879
542.895	28.0228
542.947	25.7732
542.999	32.171
543.052	23.8142
543.104	29.1115
543.156	27.6097
543.208	30.0859
543.26	25.2985
543.313	29.477
543.365	28.0594
543.417	29.7326
543.469	25.4851
543.521	28.8144
543.573	29.3307
543.626	30.8011
543.678	30.3547
543.73	26.1748
543.782	29.4065
543.834	32.0798
543.886	25.4075
543.939	28.3272
543.991	29.1155
544.043	32.5498
544.095	31.6291
544.147	24.0676
544.2	28.9855
544.252	30.1815
544.304	28.6028
544.356	26.2047
544.408	30.5255
544.46	28.6352
544.513	28.95
544.565	25.2879
544.617	27.8921
544.669	29.2913
544.721	30.4942
544.773	28.4687
544.826	29.0129
544.878	29.1584
544.93	32.1422
544.982	24.0275
545.034	28.4507
545.086	31.1411
545.139	32.1419
545.191	28.6084
545.243	31.666
545.295	31.5795
545.347	30.7066
545.399	21.9748
545.452	26.6784
545.504	32.3621
545.556	31.2605
545.608	27.0492
545.66	32.4637
545.712	31.6106
545.765	30.4361
545.817	27.2629
545.869	29.8772
545.921	29.5997
545.973	32.0143
546.025	29.105
546.077	39.1224
546.13	32.202
546.182	30.1147
546.234	29.5931
546.286	29.8268
546.338	31.2509
546.39	32.0852
546.443	30.5836
546.495	37.8097
546.547	27.3886
546.599	27.548
546.651	23.8455
546.703	34.0389
546.755	31.9681
546.808	32.0211
546.86	24.866
546.912	33.5639
546.964	27.6527
547.016	28.2507
547.068	26.9912
547.12	27.702
547.173	30.7855
547.225	30.7612
547.277	30.201
547.329	33.5144
547.381	28.1903
547.433	29.2129
547.485	27.2548
547.538	33.2853
547.59	31.9804
547.642	29.7832
547.694	28.189
547.746	32.8936
547.798	30.2729
547.85	26.5531
547.903	29.5927
547.955	31.0074
548.007	31.1718
548.059	28.4625
548.111	31.1294
548.163	30.5144
548.215	30.6266
548.268	26.0808
548.32	33.5158
548.372	36.132
548.424	33.5793
548.476	29.6794
548.528	29.5406
548.58	31.4715
548.633	29.8249
548.685	29.7538
548.737	30.4936
548.789	31.3117
548.841	32.9396
548.893	29.1145
548.945	32.5786
548.997	32.146
549.049	33.7939
549.102	31.9851
549.154	33.1313
549.206	29.5978
549.258	31.9922
549.31	30.3172
549.362	32.9423
549.414	31.2652
549.467	34.9851
549.519	30.9822
549.571	35.3714
549.623	34.698
549.675	34.9462
549.727	27.3512
549.779	34.5988
549.831	32.122
549.883	34.2406
549.936	30.6607
549.988	31.9118
550.04	31.9885
550.092	31.8685
550.144	34.2444
550.196	37.7978
550.248	36.8295
550.3	36.4317
550.353	35.112
550.405	36.5381
550.457	30.3119
550.509	33.4277
550.561	33.1803
550.613	37.4026
550.665	37.7747
550.717	37.7259
550.769	35.0651
550.822	41.1235
550.874	42.0137
550.926	42.1141
550.978	35.9597
551.03	44.9003
551.082	44.0203
551.134	43.6558
551.186	42.0989
551.238	47.289
551.291	44.2797
551.343	39.3633
551.395	48.2376
551.447	51.5724
551.499	54.4039
551.551	53.803
551.603	52.885
551.655	63.4856
551.707	59.745
551.759	59.6471
551.812	65.5834
551.864	70.9114
551.916	83.5381
551.968	91.9127
552.02	89.8496
552.072	106.49
552.124	123.479
552.176	151.953
552.228	182.477
552.28	236.461
552.332	339.882
552.385	620.602
552.437	1549.74
552.489	3335.6
552.541	5838.02
552.593	8497.53
552.645	10156
552.697	9517.61
552.749	6952.97
552.801	3801.09
552.853	1532.88
552.905	607.561
552.958	328.08
553.01	217.622
553.062	169.061
553.114	137.359
553.166	118.117
553.218	94.6551
553.27	86.3061
553.322	80.2198
553.374	75.5802
553.426	65.3929
553.478	62.0017
553.531	61.1565
553.583	56.7101
553.635	52.0074
553.687	48.7483
553.739	49.8122
553.791	45.5263
553.843	44.9777
553.895	51.9881
553.947	43.8197
553.999	44.3737
554.051	41.4713
554.103	40.7942
554.155	36.6312
554.208	39.4305
554.26	36.2607
554.312	38.9394
554.364	38.6392
554.416	36.1134
554.468	34.232
554.52	34.4085
554.572	34.3101
554.624	36.5068
554.676	37.3833
554.728	36.9712
554.78	36.2594
554.832	36.0545
554.884	32.8046
554.937	34.8494
554.989	36.8726
555.041	35.6646
555.093	31.312
555.145	30.9355
555.197	30.0513
555.249	30.2368
555.301	30.4059
555.353	32.4924
555.405	32.7648
555.457	30.7683
555.509	28.1895
555.529	27.0691
555.582	38.9129
555.634	31.1041
555.686	29.9725
555.738	28.9412
555.79	32.8976
555.842	32.0108
555.895	28.0685
555.947	28.7906
555.999	34.638
556.051	30.0351
556.103	29.9856
556.155	28.3689
556.207	36.8579
556.26	36.7359
556.312	32.9924
556.364	30.0253
556.416	34.7443
556.468	35.7521
556.52	25.7042
556.573	34.6652
556.625	37.4003
556.677	29.0599
556.729	33.41
556.781	30.6393
556.833	29.2722
556.885	33.8413
556.938	23.8476
556.99	33.8794
557.042	32.6698
557.094	32.837
557.146	24.393
557.198	27.0437
557.25	31.6304
557.302	31.7731
557.355	29.9096
557.407	37.2724
557.459	29.1733
557.511	35.259
557.563	34.9935
557.615	32.7506
557.667	29.3551
557.72	34.1035
557.772	24.9081
557.824	33.5229
557.876	29.7513
557.928	35.3755
557.98	28.2341
558.032	33.5038
558.085	26.2026
558.137	31.6658
558.189	32.4801
558.241	31.5278
558.293	27.2659
558.345	32.121
558.397	23.8664
558.449	32.7671
558.502	33.8693
558.554	33.8099
558.606	29.4202
558.658	36.6117
558.71	33.7504
558.762	33.949
558.814	28.6207
558.866	30.9423
558.919	30.4185
558.971	33.9053
559.023	32.5467
559.075	31.358
559.127	30.0442
559.179	30.9526
559.231	28.7
559.283	33.3081
559.336	32.893
559.388	32.4008
559.44	29.6577
559.492	32.7348
559.544	32.3203
559.596	30.4152
559.648	27.1736
559.7	30.9213
559.753	31.3437
559.805	30.846
559.857	29.4929
559.909	31.3343
559.961	31.2588
560.013	30.018
560.065	30.7121
560.117	33.7639
560.169	33.2557
560.222	26.9722
560.274	31.5149
560.326	29.0861
560.378	27.7271
560.43	25.9718
560.482	36.2428
560.534	36.0321
560.586	30.5233
560.638	29.7619
560.69	34.7917
560.743	29.3533
560.795	31.2725
560.847	31.955
560.899	23.8508
560.951	32.6847
561.003	32.857
561.055	30.8459
561.107	30.6631
561.159	30.873
561.212	30.7991
561.264	27.7777
561.316	35.6769
561.368	33.8362
561.42	31.4452
561.472	28.8801
561.524	31.3787
561.576	28.5017
561.628	32.7467
561.68	30.289
561.733	31.738
561.785	31.503
561.837	33.4542
561.889	31.1976
561.941	33.5538
561.993	33.3718
562.045	34.5286
562.097	24.9608
562.149	35.4641
562.201	28.9739
562.253	31.469
562.306	29.329
562.358	33.58
562.41	29.1481
562.462	29.7791
562.514	33.4213
562.566	33.4856
562.618	35.4059
562.67	30.7974
562.722	31.4008
562.774	38.9683
562.826	32.4416
562.879	31.7868
562.931	28.3804
562.983	36.7235
563.035	34.6057
563.087	34.139
563.139	33.337
563.191	35.8103
563.243	33.2109
563.295	31.2015
563.347	34.314
563.399	35.3973
563.451	30.1085
563.504	31.7675
563.556	32.1936
563.608	31.2779
563.66	35.7262
563.712	35.4136
563.764	31.7138
563.816	35.9298
563.868	30.0225
563.92	29.5209
563.972	34.7435
564.024	36.8972
564.076	33.3528
564.128	33.9367
564.181	32.6876
564.233	33.5403
564.285	33.3122
564.337	29.0476
564.389	31.9029
564.441	31.2317
564.493	31.171
564.545	30.4174
564.597	33.8956
564.649	34.3486
564.701	34.005
564.753	31.6302
564.805	36.2454
564.857	31.2309
564.909	30.8787
564.962	30.6324
565.014	32.884
565.066	29.2926
565.118	28.5126
565.17	30.5761
565.222	35.0094
565.274	31.4042
565.326	33.9207
565.378	32.2728
565.43	33.0749
565.482	36.1841
565.534	34.3617
565.586	33.5553
565.638	36.243
565.69	32.4933
565.742	34.6496
565.795	32.1209
565.847	32.5639
565.899	33.8416
565.951	33.2658
566.003	32.9516
566.055	37.4253
566.107	28.1372
566.159	30.5771
566.211	32.3647
566.263	34.6355
566.315	31.4036
566.367	30.0565
566.419	36.4537
566.471	37.8988
566.523	32.6131
566.575	30.8541
566.627	32.8844
566.679	34.3854
566.732	34.446
566.784	39.0516
566.836	34.8769
566.888	34.4445
566.94	31.9417
566.992	31.9145
567.044	31.6787
567.096	33.4292
567.148	33.9945
567.2	30.9596
567.252	32.3921
567.304	34.644
567.356	37.4514
567.408	36.5739
567.46	36.3017
567.512	34.8212
567.564	34.7982
567.616	34.4566
567.668	34.7601
567.72	34.953
567.772	34.6067
567.824	33.4183
567.876	37.2878
567.928	36.7708
567.98	33.7124
568.033	31.9194
568.085	32.9926
568.137	32.8882
568.189	32.5456
568.241	32.2438
568.293	36.1409
568.345	36.8953
568.397	33.3535
568.449	35.6168
568.501	35.6292
568.553	35.0386
568.605	38.1163
568.657	34.682
568.709	36.9869
568.761	39.6841
568.813	36.4507
568.865	34.4437
568.917	37.5641
568.969	36.8029
569.021	34.8079
569.073	35.561
569.125	37.407
569.177	35.208
569.229	36.0226
569.281	37.5486
569.333	35.8431
569.385	34.5742
569.437	35.3106
569.489	37.4315
569.541	37.6858
569.593	34.7575
569.645	33.448
569.697	32.9544
569.749	33.1543
569.801	34.8212
569.853	31.0682
569.905	35.9282
569.957	37.9315
570.009	35.5956
570.061	34.0455
570.113	34.1372
570.165	32.6011
570.217	33.1154
570.269	33.3551
570.321	33.5655
570.374	38.3579
570.426	37.1745
570.478	36.1178
570.53	38.8247
570.582	37.5745
570.634	39.0447
570.686	38.0055
570.738	36.3607
570.79	36.3085
570.842	39.9214
570.894	37.3056
570.946	36.1444
570.998	34.8577
571.05	38.3706
571.102	37.6602
571.154	36.8179
571.206	37.8356
571.258	31.5741
571.31	31.1937
571.362	37.9062
571.414	39.491
571.466	36.859
571.518	36.4998
571.57	37.2185
571.622	38.35
571.674	40.2875
571.726	35.2937
571.778	36.5513
571.83	38.9081
571.882	34.9302
571.934	34.7984
571.986	37.1893
572.038	37.9286
572.09	36.535
572.142	40.7617
572.194	39.4722
572.246	39.5418
572.298	32.8955
572.349	37.0632
572.401	40.0127
572.453	39.8884
572.505	39.5884
572.557	42.8706
572.609	40.8252
572.661	41.3703
572.713	41.1559
572.765	43.3912
572.817	37.6902
572.869	37.7273
572.921	36.9517
572.973	41.086
573.025	38.4745
573.077	44.6331
573.129	38.9449
573.181	45.4215
573.212	44.2358
573.264	41.0158
573.316	38.3451
573.368	46.1978
573.421	44.701
573.473	48.4819
573.525	43.0246
573.577	49.7975
573.629	44.5271
573.681	41.3104
573.733	40.4854
573.785	47.3657
573.837	43.5473
573.889	49.0998
573.941	43.3998
573.993	42.7532
574.045	49.2088
574.097	44.6242
574.15	49.6428
574.202	43.5091
574.254	44.0673
574.306	48.2278
574.358	39.2563
574.41	43.2074
574.462	45.8003
574.514	48.5964
574.566	46.6247
574.618	47.7214
574.67	46.5484
574.722	50.0528
574.774	41.9227
574.826	44.1073
574.878	47.5089
574.931	46.0886
574.983	48.2439
575.035	52.6656
575.087	46.8403
575.139	51.189
575.191	48.9844
575.243	48.605
575.295	48.0064
575.347	49.4766
575.399	53.2397
575.451	48.5876
575.503	48.8387
575.555	47.6081
575.607	47.8153
575.659	51.065
575.711	52.8624
575.763	53.8911
575.815	50.776
575.868	49.9192
575.92	51.8295
575.972	47.4493
576.024	51.4356
576.076	43.1857
576.128	46.6787
576.18	45.661
576.232	49.6887
576.284	50.2589
576.336	49.0285
576.388	48.7538
576.44	50.2063
576.492	47.6641
576.544	49.7665
576.596	44.3197
576.648	49.3641
576.7	50.0996
576.752	48.1482
576.804	44.7078
576.856	50.8508
576.909	50.2561
576.961	52.917
577.013	45.5308
577.065	48.3828
577.117	46.9707
577.169	49.879
577.221	47.3879
577.273	49.6424
577.325	48.9407
577.377	51.1329
577.429	47.7849
577.481	47.0397
577.533	46.1782
577.585	48.3366
577.637	39.9064
577.689	43.6258
577.741	45.5041
577.793	48.3173
577.845	43.3367
577.897	46.6372
577.949	50.5232
578.001	48.9543
578.053	42.0673
578.105	45.7001
578.157	48.6133
578.209	45.4629
578.261	44.6104
578.313	49.6855
578.365	45.5801
578.417	45.9811
578.469	46.6769
578.522	50.4469
578.574	47.1621
578.626	47.184
578.678	42.3382
578.73	49.3109
578.782	45.7741
578.834	45.5581
578.886	43.4332
578.938	45.8665
578.99	45.0225
579.042	44.0511
579.094	40.6359
579.146	49.3099
579.198	47.2953
579.25	49.1306
579.302	47.235
579.354	49.0304
579.406	48.2443
579.458	50.1624
579.51	49.8297
579.562	51.3849
579.614	51.7683
579.666	48.2674
579.718	50.9115
579.77	50.5268
579.822	49.9576
