#Acq. time (s)=	5
#Accumulations=	2
#Range (nm)=	520...900
#Windows=	8
#Auto scanning=	Off
#Autofocus=	Off
#AutoExposure=	Off
#Spike filter=	Multiple accum.
#Delay time (s)=	0
#Binning=	1
#Readout mode=	Signal
#DeNoise=	Off
#ICS correction=	Off
#Dark correction=	Off
#Inst. Process=	Off
#Detector temperature (°C)=	-59.98
#Instrument=	LabRAM HR Evol
#Detector=	Syncerity OE
#Objective=	x50_VIS
#Grating=	600 (500nm)
#ND Filter=	10%
#Laser=	514nm_Edge
#Hole=	199.981
#Range=	Auto
#StageXY=	Marzhauser
#StageZ=	Marzhauser
#X (µm)=	-19162.1
#Y (µm)=	12273.3
#Z (µm)=	-106.8
#Full time(mm:ss)=	2:04
#Project=	
#Sample=	
#Site=	
#Title=	MS_091025
#Remark=	
#Date=	13.10.2023 16:36
#Acquired=	13.10.2023 16:36:24
520.044	40
520.097	42
520.149	50
520.201	46
520.254	34
520.306	42
520.359	42
520.411	44
520.464	38
520.516	56
520.569	44
520.621	44
520.674	46
520.726	48
520.778	44
520.831	38
520.883	46
520.936	50
520.988	44
521.041	34
521.093	44
521.146	46
521.198	46
521.25	36
521.303	50
521.355	50
521.408	48
521.46	40
521.513	50
521.565	50
521.617	48
521.67	38
521.722	46
521.775	44
521.827	42
521.88	40
521.932	48
521.984	50
522.037	48
522.089	40
522.142	46
522.194	52
522.247	46
522.299	46
522.352	52
522.404	48
522.456	40
522.509	50
522.561	46
522.614	50
522.666	40
522.719	46
522.771	52
522.823	46
522.876	44
522.928	36
522.981	46
523.033	54
523.086	36
523.138	38
523.19	50
523.243	42
523.295	36
523.348	50
523.4	50
523.453	50
523.505	42
523.557	48
523.61	48
523.662	34
523.715	34
523.767	52
523.82	46
523.872	42
523.924	38
523.977	38
524.029	44
524.082	54
524.134	50
524.186	54
524.239	52
524.291	52
524.344	54
524.396	44
524.449	50
524.501	38
524.553	46
524.606	54
524.658	50
524.711	44
524.763	44
524.815	52
524.868	50
524.92	46
524.973	50
525.025	50
525.078	42
525.13	48
525.182	50
525.235	52
525.287	56
525.34	44
525.392	50
525.444	44
525.497	42
525.549	42
525.602	54
525.654	46
525.706	44
525.759	44
525.811	52
525.864	54
525.916	50
525.969	48
526.021	52
526.073	40
526.126	52
526.178	42
526.231	50
526.283	54
526.335	50
526.388	46
526.44	58
526.493	44
526.545	44
526.597	48
526.65	52
526.702	56
526.755	46
526.807	46
526.859	60
526.912	52
526.964	40
527.017	52
527.069	54
527.121	52
527.174	52
527.226	52
527.279	48
527.331	54
527.383	52
527.436	52
527.488	48
527.54	58
527.593	46
527.645	56
527.698	56
527.75	46
527.802	42
527.855	50
527.907	54
527.96	58
528.012	54
528.064	58
528.117	54
528.169	50
528.222	46
528.274	58
528.326	50
528.379	40
528.431	54
528.484	56
528.536	62
528.588	56
528.641	44
528.693	58
528.745	52
528.798	56
528.85	48
528.903	58
528.955	64
529.007	52
529.06	54
529.112	50
529.164	56
529.217	38
529.269	56
529.322	54
529.374	52
529.426	60
529.479	58
529.531	56
529.584	52
529.636	44
529.688	54
529.741	50
529.793	56
529.845	54
529.898	58
529.95	62
530.003	52
530.055	58
530.107	58
530.16	58
530.212	50
530.264	48
530.317	58
530.369	64
530.422	52
530.474	56
530.526	62
530.579	58
530.631	62
530.683	56
530.736	62
530.788	52
530.841	50
530.893	54
530.945	58
530.998	56
531.05	48
531.102	54
531.155	58
531.207	68
531.259	52
531.312	60
531.364	60
531.417	56
531.469	54
531.521	56
531.574	58
531.626	60
531.678	52
531.731	54
531.783	58
531.835	58
531.888	52
531.94	66
531.992	54
532.045	70
532.097	52
532.15	56
532.202	62
532.254	60
532.307	60
532.359	64
532.411	56
532.464	62
532.516	54
532.568	68
532.621	72
532.673	56
532.726	58
532.778	52
532.83	58
532.883	58
532.935	54
532.987	62
533.04	60
533.092	56
533.144	52
533.197	64
533.249	72
533.301	66
533.354	58
533.406	54
533.458	58
533.511	58
533.563	58
533.615	70
533.668	68
533.72	60
533.773	64
533.825	62
533.877	62
533.93	54
533.982	66
534.034	52
534.087	64
534.139	58
534.191	76
534.244	72
534.296	74
534.348	56
534.401	68
534.453	72
534.505	58
534.558	62
534.61	68
534.662	68
534.715	74
534.767	66
534.819	70
534.872	70
534.924	66
534.976	68
535.029	76
535.081	66
535.133	60
535.186	70
535.238	72
535.29	78
535.343	66
535.395	72
535.447	68
535.5	70
535.552	64
535.604	74
535.657	68
535.709	74
535.761	68
535.814	76
535.866	66
535.918	76
535.971	64
536.023	74
536.075	64
536.128	68
536.18	60
536.232	74
536.285	70
536.337	64
536.389	58
536.442	72
536.494	64
536.546	58
536.599	64
536.651	76
536.703	66
536.755	64
536.808	60
536.86	82
536.912	62
536.965	60
537.017	74
537.069	60
537.122	78
537.174	68
537.226	70
537.279	76
537.331	82
537.383	58
537.436	70
537.488	72
537.54	70
537.593	74
537.645	66
537.697	72
537.75	72
537.802	66
537.854	78
537.906	74
537.959	84
538.011	80
538.063	74
538.116	80
538.168	70
538.22	72
538.273	82
538.325	66
538.377	72
538.43	74
538.482	78
538.534	78
538.586	82
538.639	72
538.691	86
538.743	72
538.796	70
538.848	70
538.9	80
538.953	78
539.005	78
539.057	80
539.109	80
539.162	78
539.214	84
539.266	76
539.319	72
539.371	84
539.423	72
539.476	90
539.528	90
539.58	84
539.633	74
539.685	76
539.737	90
539.789	90
539.842	74
539.894	78
539.946	84
539.999	90
540.051	76
540.103	86
540.155	80
540.208	86
540.26	72
540.312	82
540.365	84
540.417	82
540.469	76
540.521	88
540.574	86
540.626	82
540.678	82
540.731	84
540.783	90
540.835	78
540.888	82
540.94	92
540.992	86
541.044	82
541.097	84
541.149	84
541.201	92
541.254	78
541.306	90
541.358	96
541.41	80
541.463	84
541.515	96
541.567	90
541.62	94
541.672	82
541.724	84
541.776	92
541.829	92
541.881	86
541.933	92
541.985	94
542.038	86
542.09	84
542.142	96
542.195	100
542.247	88
542.299	76
542.351	100
542.404	82
542.456	92
542.508	80
542.56	92
542.613	100
542.665	90
542.717	90
542.77	94
542.822	82
542.874	92
542.926	94
542.979	92
543.031	104
543.083	104
543.135	96
543.188	104
543.24	106
543.292	98
543.344	108
543.397	110
543.449	102
543.501	94
543.554	106
543.606	104
543.658	92
543.71	100
543.763	104
543.815	106
543.867	106
543.919	108
543.972	102
544.024	106
544.076	96
544.128	102
544.181	114
544.233	110
544.285	122
544.337	110
544.39	106
544.442	116
544.494	108
544.547	104
544.599	122
544.651	106
544.703	104
544.755	108
544.808	102
544.86	106
544.912	102
544.965	102
545.017	118
545.069	122
545.121	108
545.174	106
545.226	110
545.278	116
545.33	108
545.383	110
545.435	108
545.487	108
545.539	108
545.591	94
545.644	112
545.696	122
545.748	110
545.8	112
545.853	120
545.905	126
545.957	112
546.009	134
546.062	122
546.114	134
546.166	106
546.218	112
546.271	124
546.323	122
546.375	112
546.427	128
546.48	116
546.532	130
546.584	128
546.636	132
546.689	122
546.741	128
546.793	128
546.845	136
546.898	124
546.95	122
547.002	122
547.054	126
547.106	124
547.159	144
547.211	126
547.263	144
547.315	142
547.368	122
547.42	134
547.472	132
547.524	146
547.577	144
547.629	138
547.681	138
547.733	136
547.785	134
547.838	158
547.89	140
547.942	150
547.994	138
548.047	134
548.099	138
548.151	156
548.203	128
548.255	156
548.308	146
548.36	154
548.412	132
548.464	154
548.517	140
548.569	146
548.621	150
548.673	140
548.725	152
548.778	144
548.83	132
548.882	146
548.934	156
548.987	148
549.039	144
549.091	154
549.143	160
549.195	148
549.248	144
549.3	162
549.352	160
549.404	154
549.456	148
549.509	158
549.561	164
549.613	152
549.665	174
549.718	158
549.77	154
549.822	166
549.874	154
549.926	160
549.979	166
550.031	156
550.083	170
550.135	160
550.187	178
550.24	164
550.292	162
550.344	174
550.396	176
550.448	170
550.501	188
550.553	176
550.605	168
550.657	162
550.709	192
550.762	186
550.814	180
550.866	166
550.918	194
550.97	182
551.023	188
551.075	190
551.127	190
551.179	202
551.231	198
551.284	188
551.336	198
551.388	212
551.44	186
551.492	202
551.545	222
551.597	222
551.649	238
551.701	212
551.753	248
551.806	250
551.858	242
551.91	262
551.962	292
552.014	314
552.067	348
552.119	384
552.171	456
552.223	592
552.275	1070
552.327	2256
552.38	4546
552.432	8046
552.484	12544
552.536	15358
552.588	11440
552.641	5378
552.693	2066
552.745	928
552.797	590
552.849	438
552.901	386
552.954	344
553.006	312
553.058	294
553.11	280
553.162	272
553.215	246
553.267	252
553.319	252
553.371	244
553.423	254
553.475	228
553.528	232
553.58	224
553.632	238
553.684	230
553.736	238
553.788	218
553.841	242
553.893	216
553.945	240
553.997	236
554.049	230
554.102	220
554.154	220
554.206	226
554.258	238
554.31	234
554.362	236
554.414	236
554.467	230
554.519	236
554.571	234
554.623	250
554.675	240
554.727	224
554.78	232
554.832	232
554.884	228
554.936	236
554.988	216
555.04	234
555.093	226
555.145	246
555.197	244
555.249	246
555.301	232
555.353	246
555.406	252
555.458	238
555.51	232
555.562	250
555.614	262
555.666	258
555.719	250
555.771	238
555.823	264
555.875	248
555.927	262
555.979	258
556.031	280
556.084	256
556.136	262
556.188	256
556.24	258
556.292	262
556.344	266
556.396	268
556.449	274
556.501	280
556.553	268
556.605	278
556.657	256
556.709	274
556.762	260
556.814	280
556.866	270
556.918	264
556.97	280
557.022	274
557.074	306
557.127	296
557.179	260
557.231	294
557.283	280
557.335	298
557.387	288
557.439	292
557.492	290
557.544	286
557.596	286
557.648	296
557.7	288
557.752	286
557.804	286
557.856	298
557.909	294
557.961	290
558.013	290
558.065	296
558.117	314
558.169	284
558.221	318
558.273	304
558.326	312
558.378	288
558.43	306
558.482	300
558.534	296
558.586	316
558.638	324
558.691	322
558.743	310
558.795	318
558.847	312
558.899	306
558.951	306
559.003	310
559.055	330
559.108	306
559.16	300
559.212	298
559.264	300
559.316	328
559.368	328
559.42	302
559.472	306
559.525	322
559.577	320
559.629	302
559.681	322
559.733	320
559.785	322
559.837	330
559.889	334
559.941	334
559.994	316
560.046	314
560.098	348
560.15	348
560.202	324
560.254	336
560.306	324
560.358	332
560.41	344
560.463	362
560.515	332
560.567	358
560.619	334
560.671	356
560.723	336
560.775	344
560.827	340
560.879	376
560.932	350
560.984	368
561.036	326
561.088	372
561.14	362
561.192	370
561.244	352
561.296	372
561.348	374
561.4	354
561.453	360
561.505	394
561.557	364
561.609	390
561.661	376
561.713	402
561.765	374
561.817	372
561.869	372
561.921	382
561.974	392
562.026	378
562.078	386
562.13	394
562.182	388
562.234	366
562.286	386
562.338	414
562.39	402
562.442	404
562.494	400
562.547	412
562.599	408
562.651	386
562.703	406
562.755	408
562.807	428
562.859	414
562.911	402
562.963	414
563.015	422
563.067	424
563.12	440
563.172	438
563.224	420
563.276	420
563.328	424
563.38	440
563.432	436
563.484	422
563.536	432
563.588	436
563.64	426
563.692	434
563.744	442
563.797	444
563.849	438
563.901	444
563.953	468
564.005	424
564.057	436
564.109	436
564.161	440
564.213	468
564.265	434
564.317	474
564.369	448
564.421	458
564.474	464
564.526	480
564.578	460
564.63	474
564.682	494
564.734	472
564.786	478
564.838	478
564.89	480
564.942	458
564.994	482
565.046	474
565.098	474
565.15	490
565.202	494
565.255	482
565.307	486
565.359	522
565.411	506
565.463	490
565.515	484
565.567	508
565.619	506
565.671	512
565.723	514
565.775	506
565.827	508
565.879	492
565.931	508
565.983	512
566.035	514
566.087	500
566.139	516
566.192	530
566.244	526
566.296	528
566.348	532
566.4	524
566.452	506
566.504	516
566.556	554
566.608	544
566.66	554
566.712	534
566.764	556
566.816	572
566.868	558
566.92	560
566.972	566
567.024	560
567.076	540
567.128	540
567.18	534
567.232	564
567.285	562
567.337	552
567.389	554
567.441	560
567.493	548
567.545	598
567.597	566
567.649	604
567.701	602
567.753	566
567.805	606
567.857	568
567.909	612
567.961	616
568.013	624
568.065	602
568.117	604.12
568.169	608.316
568.221	598.667
568.273	631.174
568.325	624.492
568.377	618.493
568.429	610.238
568.481	608.699
568.533	628.512
568.585	614.566
568.637	610.525
568.69	646.147
568.742	620.388
568.794	650.35
568.846	638.438
568.898	644.923
568.95	635.875
569.002	642.7
569.054	655.694
569.106	666.861
569.158	651.489
569.21	655.354
569.262	641.883
569.314	665.235
569.366	650.681
569.418	670.994
569.47	682.358
569.522	698.32
569.574	646.693
569.626	674.426
569.678	687.23
569.73	693.186
569.782	689.979
569.834	714.402
569.886	709.944
569.938	717.376
569.99	711.941
570.042	730.43
570.094	739.173
570.146	743.028
570.198	700.151
570.25	735.866
570.302	733.821
570.354	728.981
570.406	747.956
570.458	742.82
570.51	765.111
570.562	755.824
570.614	755.643
570.666	779.582
570.718	768.855
570.77	790.75
570.822	797.664
570.874	803.62
570.926	806.862
570.978	808.855
571.03	820.576
571.082	818.428
571.134	828.607
571.186	834.778
571.238	857.077
571.29	870.613
571.342	848.782
571.394	860.856
571.446	869.046
571.498	886.514
571.55	904.713
571.602	902.777
571.654	915.309
571.706	918.415
571.758	924.692
571.81	932.228
571.862	926.994
571.914	935.61
571.966	962.337
572.018	983.213
572.07	974.672
572.122	985.381
572.174	1005.36
572.226	997.346
572.278	1031.8
572.33	1035.99
572.382	1052.49
572.434	1047.57
572.486	1068.25
572.538	1092.49
572.59	1075.63
572.642	1082.07
572.694	1137.53
572.746	1134.65
572.798	1151.81
572.85	1143.33
572.902	1166.15
572.954	1174.33
573.006	1226.21
573.058	1180.56
573.11	1234.25
573.162	1244.49
573.214	1257.77
573.266	1266.28
573.312	1298
573.364	1302
573.416	1324
573.469	1318
573.521	1392
573.573	1414
573.625	1442
573.677	1404
573.73	1454
573.782	1454
573.834	1486
573.886	1482
573.938	1564
573.991	1570
574.043	1582
574.095	1610
574.147	1652
574.199	1662
574.252	1608
574.304	1690
574.356	1740
574.408	1770
574.46	1792
574.513	1814
574.565	1842
574.617	1878
574.669	1888
574.721	1950
574.774	1958
574.826	1980
574.878	2020
574.93	2036
574.982	2028
575.035	2120
575.087	2142
575.139	2138
575.191	2152
575.243	2128
575.296	2156
575.348	2284
575.4	2200
575.452	2236
575.504	2278
575.556	2306
575.609	2268
575.661	2326
575.713	2246
575.765	2290
575.817	2282
575.87	2352
575.922	2232
575.974	2320
576.026	2262
576.078	2240
576.131	2316
576.183	2214
576.235	2296
576.287	2214
576.339	2170
576.391	2180
576.444	2248
576.496	2202
576.548	2164
576.6	2178
576.652	2110
576.705	2098
576.757	2106
576.809	2044
576.861	2058
576.913	2018
576.965	2016
577.018	1922
577.07	1974
577.122	1940
577.174	1916
577.226	1858
577.279	1846
577.331	1884
577.383	1840
577.435	1820
577.487	1770
577.539	1792
577.592	1802
577.644	1740
577.696	1752
577.748	1770
577.8	1708
577.852	1682
577.905	1716
577.957	1656
578.009	1670
578.061	1638
578.113	1610
578.165	1568
578.218	1640
578.27	1594
578.322	1560
578.374	1568
578.426	1588
578.478	1554
578.531	1532
578.583	1580
578.635	1528
578.687	1498
578.739	1518
578.791	1532
578.844	1512
578.896	1548
578.948	1496
579	1520
579.052	1488
579.104	1462
579.157	1490
579.209	1492
579.261	1454
579.313	1496
579.365	1456
579.417	1498
579.47	1482
579.522	1454
579.574	1482
579.626	1468
579.678	1498
579.73	1474
579.782	1474
579.835	1516
579.887	1482
579.939	1472
579.991	1476
580.043	1424
580.095	1476
580.148	1516
580.2	1492
580.252	1476
580.304	1458
580.356	1500
580.408	1440
580.46	1500
580.513	1462
580.565	1488
580.617	1534
580.669	1482
580.721	1512
580.773	1498
580.826	1508
580.878	1482
580.93	1502
580.982	1502
581.034	1504
581.086	1504
581.138	1476
581.191	1488
581.243	1494
581.295	1500
581.347	1510
581.399	1526
581.451	1466
581.503	1482
581.556	1548
581.608	1554
581.66	1596
581.712	1528
581.764	1550
581.816	1454
581.868	1526
581.92	1506
581.973	1550
582.025	1510
582.077	1538
582.129	1572
582.181	1568
582.233	1522
582.285	1604
582.338	1556
582.39	1562
582.442	1576
582.494	1574
582.546	1586
582.598	1584
582.65	1626
582.703	1608
582.755	1626
582.807	1606
582.859	1612
582.911	1634
582.963	1640
583.015	1590
583.067	1604
583.12	1604
583.172	1654
583.224	1642
583.276	1632
583.328	1644
583.38	1680
583.432	1622
583.484	1648
583.537	1638
583.589	1652
583.641	1684
583.693	1688
583.745	1648
583.797	1720
583.849	1708
583.901	1674
583.953	1686
584.006	1712
584.058	1696
584.11	1724
584.162	1724
584.214	1756
584.266	1772
584.318	1746
584.37	1772
584.423	1726
584.475	1778
584.527	1762
584.579	1736
584.631	1790
584.683	1796
584.735	1798
584.787	1802
584.839	1794
584.892	1808
584.944	1800
584.996	1784
585.048	1804
585.1	1846
585.152	1842
585.204	1856
585.256	1876
585.308	1818
585.361	1834
585.413	1890
585.465	1846
585.517	1872
585.569	1918
585.621	1906
585.673	1928
585.725	1888
585.777	1904
585.83	1876
585.882	1904
585.934	1904
585.986	1952
586.038	1894
586.09	1888
586.142	1960
586.194	1922
586.246	1946
586.298	1948
586.351	1958
586.403	1942
586.455	1950
586.507	1964
586.559	1990
586.611	1986
586.663	1988
586.715	1952
586.767	1964
586.819	2000
586.872	2060
586.924	2026
586.976	1970
587.028	2032
587.08	2030
587.132	2028
587.184	1988
587.236	2006
587.288	2010
587.34	2046
587.392	2032
587.445	2020
587.497	2048
587.549	2032
587.601	2010
587.653	2064
587.705	2022
587.757	2016
587.809	2008
587.861	2010
587.913	2010
587.965	1980
588.018	2074
588.07	2036
588.122	1970
588.174	2064
588.226	2028
588.278	2018
588.33	2074
588.382	2046
588.434	2040
588.486	2050
588.538	2064
588.59	2122
588.642	2040
588.695	2044
588.747	2034
588.799	2070
588.851	2050
588.903	1998
588.955	2076
589.007	2062
589.059	2142
589.111	2116
589.163	2090
589.215	2096
589.267	2108
589.319	2122
589.372	2102
589.424	2124
589.476	2172
589.528	2080
589.58	2122
589.632	2084
589.684	2120
589.736	2096
589.788	2050
589.84	2118
589.892	2102
589.944	2094
589.996	2102
590.048	2114
590.101	2124
590.153	2104
590.205	2084
590.257	2128
590.309	2094
590.361	2062
590.413	2144
590.465	2122
590.517	2090
590.569	2114
590.621	2100
590.673	2084
590.725	2106
590.777	2108
590.829	2080
590.881	2110
590.933	2098
590.986	2100
591.038	2140
591.09	2116
591.142	2132
591.194	2096
591.246	2118
591.298	2058
591.35	2070
591.402	2112
591.454	2110
591.506	2100
591.558	2136
591.61	2138
591.662	2074
591.714	2048
591.766	2052
591.818	2086
591.87	2060
591.923	2090
591.975	2078
592.027	2110
592.079	2124
592.131	2078
592.183	2098
592.235	2082
592.287	2036
592.339	2068
592.391	2092
592.443	2096
592.495	2070
592.547	2088
592.599	2096
592.651	2136
592.703	2044
592.755	2120
592.807	2090
592.859	2086
592.911	2104
592.963	2086
593.015	2070
593.068	2086
593.12	2132
593.172	2070
593.224	2092
593.276	2060
593.328	2114
593.38	2084
593.432	2088
593.484	2058
593.536	2070
593.588	2112
593.64	2108
593.692	2068
593.744	2098
593.796	2086
593.848	2134
593.9	2148
593.952	2066
594.004	2154
594.056	2092
594.108	2124
594.16	2092
594.212	2128
594.264	2138
594.316	2098
594.368	2132
594.42	2118
594.472	2152
594.524	2182
594.576	2164
594.628	2178
594.68	2178
594.732	2198
594.784	2110
594.837	2162
594.889	2188
594.941	2202
594.993	2156
595.045	2174
595.097	2138
595.149	2134
595.201	2238
595.253	2166
595.305	2234
595.357	2260
595.409	2222
595.461	2234
595.513	2210
595.565	2248
595.617	2216
595.669	2244
595.721	2256
595.773	2284
595.825	2282
595.877	2290
595.929	2290
595.981	2314
596.033	2288
596.085	2290
596.137	2296
596.189	2288
596.241	2320
596.293	2314
596.345	2322
596.397	2366
596.449	2394
596.501	2358
