#Acq. time (s)=	5
#Accumulations=	2
#Range (nm)=	520...900
#Windows=	8
#Auto scanning=	Off
#Autofocus=	Off
#AutoExposure=	Off
#Spike filter=	Multiple accum.
#Delay time (s)=	0
#Binning=	1
#Readout mode=	Signal
#DeNoise=	Off
#ICS correction=	Off
#Dark correction=	Off
#Inst. Process=	Off
#Detector temperature (°C)=	-59.98
#Instrument=	LabRAM HR Evol
#Detector=	Syncerity OE
#Objective=	x50_VIS
#Grating=	600 (500nm)
#ND Filter=	10%
#Laser=	514nm_Edge
#Hole=	199.981
#Range=	Auto
#StageXY=	Marzhauser
#StageZ=	Marzhauser
#X (µm)=	-10802.4
#Y (µm)=	12273.3
#Z (µm)=	-163.4
#Full time(mm:ss)=	2:04
#Project=	
#Sample=	
#Site=	
#Title=	MS_091025
#Remark=	
#Date=	13.10.2023 16:39
#Acquired=	13.10.2023 16:39:12
520.044	28
520.097	34
520.149	32
520.201	40
520.254	38
520.306	30
520.359	32
520.411	32
520.464	38
520.516	34
520.569	42
520.621	28
520.674	40
520.726	34
520.778	40
520.831	32
520.883	30
520.936	36
520.988	52
521.041	32
521.093	36
521.146	38
521.198	32
521.25	26
521.303	32
521.355	36
521.408	42
521.46	34
521.513	36
521.565	38
521.617	42
521.67	34
521.722	42
521.775	28
521.827	36
521.88	28
521.932	36
521.984	38
522.037	32
522.089	38
522.142	32
522.194	32
522.247	28
522.299	38
522.352	26
522.404	44
522.456	38
522.509	42
522.561	26
522.614	32
522.666	34
522.719	46
522.771	28
522.823	38
522.876	34
522.928	40
522.981	26
523.033	40
523.086	28
523.138	36
523.19	34
523.243	40
523.295	30
523.348	36
523.4	36
523.453	32
523.505	38
523.557	34
523.61	34
523.662	36
523.715	30
523.767	34
523.82	38
523.872	42
523.924	40
523.977	36
524.029	36
524.082	30
524.134	36
524.186	40
524.239	46
524.291	44
524.344	34
524.396	30
524.449	38
524.501	36
524.553	42
524.606	36
524.658	44
524.711	32
524.763	34
524.815	40
524.868	36
524.92	32
524.973	38
525.025	42
525.078	40
525.13	40
525.182	38
525.235	30
525.287	46
525.34	30
525.392	40
525.444	36
525.497	44
525.549	38
525.602	38
525.654	44
525.706	36
525.759	46
525.811	40
525.864	34
525.916	36
525.969	30
526.021	32
526.073	38
526.126	42
526.178	40
526.231	28
526.283	40
526.335	46
526.388	42
526.44	38
526.493	40
526.545	36
526.597	38
526.65	26
526.702	46
526.755	36
526.807	40
526.859	32
526.912	46
526.964	42
527.017	40
527.069	40
527.121	48
527.174	40
527.226	36
527.279	44
527.331	44
527.383	36
527.436	38
527.488	42
527.54	44
527.593	34
527.645	42
527.698	38
527.75	48
527.802	42
527.855	38
527.907	46
527.96	38
528.012	36
528.064	36
528.117	40
528.169	42
528.222	36
528.274	38
528.326	44
528.379	38
528.431	36
528.484	40
528.536	42
528.588	36
528.641	34
528.693	40
528.745	46
528.798	50
528.85	36
528.903	34
528.955	42
529.007	46
529.06	42
529.112	40
529.164	48
529.217	36
529.269	34
529.322	38
529.374	50
529.426	36
529.479	40
529.531	38
529.584	42
529.636	34
529.688	46
529.741	48
529.793	42
529.845	34
529.898	44
529.95	48
530.003	44
530.055	38
530.107	44
530.16	46
530.212	36
530.264	36
530.317	42
530.369	48
530.422	44
530.474	36
530.526	38
530.579	44
530.631	42
530.683	36
530.736	38
530.788	46
530.841	44
530.893	44
530.945	38
530.998	48
531.05	50
531.102	46
531.155	42
531.207	48
531.259	38
531.312	40
531.364	46
531.417	48
531.469	42
531.521	44
531.574	48
531.626	38
531.678	44
531.731	40
531.783	46
531.835	44
531.888	34
531.94	32
531.992	42
532.045	42
532.097	48
532.15	38
532.202	42
532.254	50
532.307	46
532.359	38
532.411	48
532.464	44
532.516	54
532.568	40
532.621	50
532.673	46
532.726	42
532.778	48
532.83	54
532.883	40
532.935	52
532.987	44
533.04	52
533.092	44
533.144	50
533.197	50
533.249	52
533.301	42
533.354	44
533.406	48
533.458	46
533.511	44
533.563	42
533.615	40
533.668	56
533.72	36
533.773	48
533.825	48
533.877	48
533.93	42
533.982	42
534.034	50
534.087	46
534.139	46
534.191	42
534.244	52
534.296	44
534.348	44
534.401	44
534.453	46
534.505	48
534.558	40
534.61	40
534.662	50
534.715	42
534.767	44
534.819	54
534.872	54
534.924	50
534.976	50
535.029	46
535.081	58
535.133	46
535.186	48
535.238	52
535.29	52
535.343	58
535.395	56
535.447	52
535.5	60
535.552	38
535.604	50
535.657	54
535.709	52
535.761	52
535.814	60
535.866	44
535.918	52
535.971	42
536.023	52
536.075	44
536.128	54
536.18	50
536.232	44
536.285	52
536.337	54
536.389	44
536.442	50
536.494	56
536.546	50
536.599	46
536.651	46
536.703	50
536.755	50
536.808	48
536.86	46
536.912	58
536.965	54
537.017	52
537.069	52
537.122	44
537.174	46
537.226	54
537.279	58
537.331	62
537.383	58
537.436	56
537.488	48
537.54	52
537.593	50
537.645	54
537.697	50
537.75	58
537.802	52
537.854	48
537.906	60
537.959	56
538.011	50
538.063	58
538.116	50
538.168	62
538.22	52
538.273	50
538.325	60
538.377	50
538.43	50
538.482	50
538.534	48
538.586	62
538.639	52
538.691	52
538.743	66
538.796	50
538.848	54
538.9	54
538.953	56
539.005	46
539.057	52
539.109	50
539.162	64
539.214	40
539.266	58
539.319	56
539.371	52
539.423	54
539.476	58
539.528	64
539.58	56
539.633	48
539.685	52
539.737	56
539.789	58
539.842	54
539.894	62
539.946	56
539.999	54
540.051	50
540.103	56
540.155	60
540.208	54
540.26	58
540.312	54
540.365	60
540.417	64
540.469	56
540.521	54
540.574	66
540.626	56
540.678	56
540.731	54
540.783	56
540.835	58
540.888	58
540.94	56
540.992	62
541.044	58
541.097	64
541.149	60
541.201	64
541.254	68
541.306	56
541.358	60
541.41	58
541.463	58
541.515	62
541.567	60
541.62	68
541.672	60
541.724	62
541.776	68
541.829	74
541.881	64
541.933	66
541.985	54
542.038	70
542.09	62
542.142	58
542.195	66
542.247	64
542.299	66
542.351	62
542.404	64
542.456	76
542.508	64
542.56	64
542.613	64
542.665	64
542.717	64
542.77	50
542.822	70
542.874	70
542.926	62
542.979	52
543.031	70
543.083	72
543.135	68
543.188	72
543.24	70
543.292	70
543.344	64
543.397	70
543.449	68
543.501	64
543.554	66
543.606	72
543.658	86
543.71	74
543.763	74
543.815	74
543.867	72
543.919	72
543.972	74
544.024	70
544.076	68
544.128	72
544.181	64
544.233	72
544.285	74
544.337	72
544.39	78
544.442	74
544.494	64
544.547	72
544.599	76
544.651	82
544.703	70
544.755	78
544.808	74
544.86	78
544.912	78
544.965	80
545.017	68
545.069	76
545.121	72
545.174	74
545.226	76
545.278	76
545.33	72
545.383	82
545.435	76
545.487	82
545.539	84
545.591	78
545.644	74
545.696	68
545.748	62
545.8	80
545.853	86
545.905	86
545.957	84
546.009	80
546.062	86
546.114	86
546.166	76
546.218	76
546.271	76
546.323	92
546.375	84
546.427	80
546.48	88
546.532	90
546.584	88
546.636	88
546.689	92
546.741	92
546.793	86
546.845	78
546.898	90
546.95	84
547.002	88
547.054	90
547.106	86
547.159	94
547.211	92
547.263	108
547.315	92
547.368	98
547.42	88
547.472	76
547.524	94
547.577	84
547.629	90
547.681	100
547.733	100
547.785	94
547.838	102
547.89	94
547.942	106
547.994	90
548.047	78
548.099	104
548.151	88
548.203	98
548.255	98
548.308	92
548.36	104
548.412	96
548.464	98
548.517	108
548.569	118
548.621	102
548.673	110
548.725	110
548.778	98
548.83	96
548.882	108
548.934	106
548.987	112
549.039	108
549.091	94
549.143	108
549.195	120
549.248	108
549.3	100
549.352	106
549.404	100
549.456	110
549.509	104
549.561	112
549.613	104
549.665	114
549.718	112
549.77	98
549.822	120
549.874	110
549.926	110
549.979	122
550.031	110
550.083	94
550.135	108
550.187	122
550.24	116
550.292	120
550.344	114
550.396	126
550.448	112
550.501	120
550.553	128
550.605	130
550.657	114
550.709	124
550.762	120
550.814	120
550.866	120
550.918	130
550.97	134
551.023	138
551.075	146
551.127	146
551.179	142
551.231	138
551.284	144
551.336	156
551.388	158
551.44	138
551.492	154
551.545	146
551.597	184
551.649	150
551.701	160
551.753	176
551.806	190
551.858	202
551.91	214
551.962	234
552.014	254
552.067	250
552.119	328
552.171	380
552.223	584
552.275	1068
552.327	2256
552.38	4272
552.432	7930
552.484	14428
552.536	16366
552.588	9382
552.641	4372
552.693	1560
552.745	718
552.797	478
552.849	372
552.901	306
552.954	264
553.006	242
553.058	220
553.11	202
553.162	186
553.215	198
553.267	190
553.319	172
553.371	158
553.423	168
553.475	164
553.528	172
553.58	166
553.632	162
553.684	158
553.736	168
553.788	160
553.841	168
553.893	162
553.945	158
553.997	162
554.049	158
554.102	150
554.154	144
554.206	150
554.258	158
554.31	158
554.362	138
554.414	150
554.467	154
554.519	158
554.571	144
554.623	154
554.675	156
554.727	156
554.78	154
554.832	160
554.884	166
554.936	148
554.988	158
555.04	168
555.093	170
555.145	168
555.197	156
555.249	162
555.301	168
555.353	166
555.406	152
555.458	170
555.51	156
555.562	174
555.614	166
555.666	182
555.719	162
555.771	168
555.823	178
555.875	174
555.927	162
555.979	164
556.031	168
556.084	168
556.136	162
556.188	156
556.24	182
556.292	170
556.344	172
556.396	166
556.449	184
556.501	172
556.553	178
556.605	190
556.657	194
556.709	170
556.762	180
556.814	178
556.866	174
556.918	168
556.97	180
557.022	174
557.074	174
557.127	178
557.179	186
557.231	182
557.283	190
557.335	184
557.387	194
557.439	186
557.492	194
557.544	180
557.596	194
557.648	192
557.7	204
557.752	196
557.804	202
557.856	202
557.909	194
557.961	192
558.013	200
558.065	202
558.117	216
558.169	192
558.221	196
558.273	194
558.326	206
558.378	198
558.43	214
558.482	204
558.534	200
558.586	198
558.638	210
558.691	204
558.743	214
558.795	200
558.847	196
558.899	218
558.951	194
559.003	184
559.055	214
559.108	210
559.16	198
559.212	192
559.264	202
559.316	218
559.368	208
559.42	212
559.472	210
559.525	196
559.577	208
559.629	218
559.681	214
559.733	226
559.785	226
559.837	220
559.889	208
559.941	192
559.994	218
560.046	212
560.098	206
560.15	218
560.202	206
560.254	230
560.306	222
560.358	228
560.41	226
560.463	208
560.515	236
560.567	228
560.619	232
560.671	226
560.723	234
560.775	226
560.827	226
560.879	246
560.932	242
560.984	242
561.036	248
561.088	238
561.14	236
561.192	242
561.244	228
561.296	222
561.348	244
561.4	232
561.453	244
561.505	250
561.557	236
561.609	262
561.661	248
561.713	252
561.765	264
561.817	246
561.869	254
561.921	262
561.974	262
562.026	252
562.078	260
562.13	268
562.182	264
562.234	270
562.286	268
562.338	268
562.39	258
562.442	268
562.494	260
562.547	284
562.599	262
562.651	286
562.703	274
562.755	260
562.807	254
562.859	270
562.911	266
562.963	284
563.015	286
563.067	278
563.12	270
563.172	290
563.224	280
563.276	278
563.328	272
563.38	286
563.432	290
563.484	284
563.536	270
563.588	304
563.64	290
563.692	284
563.744	280
563.797	294
563.849	296
563.901	282
563.953	296
564.005	314
564.057	308
564.109	286
564.161	304
564.213	298
564.265	304
564.317	302
564.369	304
564.421	306
564.474	312
564.526	280
564.578	306
564.63	312
564.682	302
564.734	298
564.786	296
564.838	324
564.89	292
564.942	300
564.994	342
565.046	310
565.098	318
565.15	324
565.202	304
565.255	330
565.307	318
565.359	326
565.411	346
565.463	322
565.515	324
565.567	322
565.619	336
565.671	346
565.723	322
565.775	352
565.827	340
565.879	332
565.931	320
565.983	338
566.035	346
566.087	340
566.139	324
566.192	334
566.244	340
566.296	342
566.348	336
566.4	360
566.452	370
566.504	352
566.556	364
566.608	350
566.66	376
566.712	348
566.764	364
566.816	352
566.868	380
566.92	332
566.972	344
567.024	364
567.076	364
567.128	342
567.18	360
567.232	386
567.285	374
567.337	370
567.389	372
567.441	390
567.493	374
567.545	382
567.597	384
567.649	370
567.701	374
567.753	366
567.805	378
567.857	384
567.909	374
567.961	376
568.013	402
568.065	388
568.117	390.09
568.169	380.42
568.221	386.284
568.273	405.37
568.325	391.053
568.377	376.758
568.429	398.159
568.481	384.244
568.533	395.62
568.585	397.517
568.637	408.522
568.69	423.199
568.742	410.255
568.794	401.875
568.846	393.816
568.898	422.784
568.95	413.962
569.002	410.002
569.054	430.102
569.106	423.307
569.158	419.208
569.21	430.489
569.262	430.622
569.314	432.434
569.366	424.432
569.418	429.479
569.47	428.278
569.522	437.569
569.574	431.837
569.626	445.544
569.678	439.348
569.73	446.114
569.782	439.221
569.834	451.202
569.886	438.057
569.938	447.639
569.99	465.62
570.042	464.367
570.094	479.087
570.146	479.956
570.198	465.675
570.25	478.508
570.302	472.643
570.354	465.809
570.406	462.571
570.458	478.13
570.51	490.207
570.562	502.175
570.614	499.799
570.666	505.262
570.718	508.693
570.77	507.274
570.822	510.948
570.874	512.81
570.926	532.341
570.978	520.261
571.03	522.701
571.082	525.586
571.134	524.613
571.186	544.778
571.238	538.723
571.29	547.743
571.342	556.156
571.394	553.429
571.446	563.28
571.498	560.619
571.55	582.791
571.602	580.197
571.654	591.478
571.706	588.187
571.758	585.514
571.81	590.28
571.862	604.983
571.914	613.449
571.966	591.804
572.018	627.084
572.07	630.151
572.122	643.366
572.174	653.864
572.226	658.625
572.278	649.686
572.33	656.755
572.382	650.95
572.434	679.882
572.486	695.732
572.538	697.148
572.59	690.716
572.642	734.588
572.694	708.587
572.746	735.477
572.798	730.761
572.85	730.694
572.902	774.23
572.954	763.848
573.006	771.831
573.058	770.045
573.11	783.963
573.162	771.363
573.214	815.023
573.266	811.213
573.312	834
573.364	848
573.416	854
573.469	854
573.521	882
573.573	866
573.625	854
573.677	922
573.73	952
573.782	908
573.834	960
573.886	960
573.938	984
573.991	968
574.043	988
574.095	1040
574.147	1030
574.199	1050
574.252	1050
574.304	1068
574.356	1084
574.408	1116
574.46	1116
574.513	1118
574.565	1156
574.617	1176
574.669	1164
574.721	1124
574.774	1216
574.826	1216
574.878	1242
574.93	1268
574.982	1258
575.035	1298
575.087	1336
575.139	1334
575.191	1344
575.243	1328
575.296	1376
575.348	1372
575.4	1362
575.452	1378
575.504	1430
575.556	1398
575.609	1412
575.661	1404
575.713	1436
575.765	1428
575.817	1398
575.87	1448
575.922	1464
575.974	1442
576.026	1440
576.078	1442
576.131	1400
576.183	1418
576.235	1434
576.287	1394
576.339	1424
576.391	1446
576.444	1396
576.496	1394
576.548	1382
576.6	1378
576.652	1378
576.705	1358
576.757	1348
576.809	1366
576.861	1314
576.913	1356
576.965	1328
577.018	1274
577.07	1244
577.122	1268
577.174	1256
577.226	1226
577.279	1258
577.331	1184
577.383	1190
577.435	1200
577.487	1210
577.539	1212
577.592	1170
577.644	1156
577.696	1140
577.748	1148
577.8	1144
577.852	1128
577.905	1124
577.957	1120
578.009	1136
578.061	1076
578.113	1124
578.165	1042
578.218	1078
578.27	1054
578.322	1064
578.374	1052
578.426	1012
578.478	1014
578.531	1036
578.583	1038
578.635	1004
578.687	1034
578.739	1030
578.791	1008
578.844	972
578.896	972
578.948	1018
579	982
579.052	1002
579.104	974
579.157	974
579.209	988
579.261	964
579.313	962
579.365	1012
579.417	940
579.47	948
579.522	994
579.574	980
579.626	972
579.678	958
579.73	960
579.782	962
579.835	966
579.887	936
579.939	986
579.991	944
580.043	954
580.095	942
580.148	958
580.2	976
580.252	932
580.304	978
580.356	968
580.408	954
580.46	986
580.513	972
580.565	960
580.617	952
580.669	960
580.721	994
580.773	952
580.826	940
580.878	970
580.93	970
580.982	978
581.034	984
581.086	976
581.138	988
581.191	962
581.243	974
581.295	1008
581.347	960
581.399	988
581.451	968
581.503	984
581.556	990
581.608	958
581.66	982
581.712	970
581.764	970
581.816	992
581.868	970
581.92	970
581.973	1036
582.025	1026
582.077	1030
582.129	980
582.181	1020
582.233	1022
582.285	980
582.338	1026
582.39	1028
582.442	990
582.494	1010
582.546	1026
582.598	1032
582.65	1020
582.703	1040
582.755	1028
582.807	1040
582.859	1012
582.911	1034
582.963	1032
583.015	1024
583.067	1054
583.12	1056
583.172	1032
583.224	1010
583.276	1048
583.328	1078
583.38	1072
583.432	1072
583.484	1096
583.537	1026
583.589	1056
583.641	1066
583.693	1062
583.745	1060
583.797	1094
583.849	1064
583.901	1092
583.953	1082
584.006	1120
584.058	1144
584.11	1092
584.162	1082
584.214	1092
584.266	1108
584.318	1146
584.37	1112
584.423	1136
584.475	1134
584.527	1152
584.579	1148
584.631	1142
584.683	1158
584.735	1122
584.787	1132
584.839	1152
584.892	1144
584.944	1208
584.996	1164
585.048	1178
585.1	1184
585.152	1204
585.204	1210
585.256	1218
585.308	1168
585.361	1222
585.413	1252
585.465	1210
585.517	1240
585.569	1232
585.621	1200
585.673	1218
585.725	1236
585.777	1212
585.83	1228
585.882	1216
585.934	1242
585.986	1254
586.038	1292
586.09	1252
586.142	1244
586.194	1274
586.246	1254
586.298	1248
586.351	1236
586.403	1284
586.455	1286
586.507	1258
586.559	1292
586.611	1274
586.663	1314
586.715	1262
586.767	1274
586.819	1248
586.872	1284
586.924	1310
586.976	1292
587.028	1274
587.08	1344
587.132	1296
587.184	1314
587.236	1296
587.288	1300
587.34	1344
587.392	1308
587.445	1334
587.497	1318
587.549	1314
587.601	1314
587.653	1342
587.705	1344
587.757	1330
587.809	1336
587.861	1328
587.913	1320
587.965	1278
588.018	1344
588.07	1306
588.122	1334
588.174	1366
588.226	1346
588.278	1338
588.33	1330
588.382	1316
588.434	1368
588.486	1344
588.538	1298
588.59	1324
588.642	1370
588.695	1350
588.747	1384
588.799	1382
588.851	1350
588.903	1394
588.955	1370
589.007	1372
589.059	1388
589.111	1410
589.163	1352
589.215	1350
589.267	1434
589.319	1390
589.372	1376
589.424	1396
589.476	1348
589.528	1396
589.58	1368
589.632	1378
589.684	1372
589.736	1404
589.788	1364
589.84	1370
589.892	1344
589.944	1392
589.996	1370
590.048	1372
590.101	1378
590.153	1366
590.205	1392
590.257	1382
590.309	1360
590.361	1356
590.413	1406
590.465	1358
590.517	1396
590.569	1414
590.621	1352
590.673	1330
590.725	1398
590.777	1392
590.829	1378
590.881	1366
590.933	1356
590.986	1366
591.038	1388
591.09	1376
591.142	1350
591.194	1356
591.246	1358
591.298	1382
591.35	1380
591.402	1410
591.454	1394
591.506	1364
591.558	1324
591.61	1388
591.662	1340
591.714	1350
591.766	1354
591.818	1372
591.87	1342
591.923	1372
591.975	1314
592.027	1360
592.079	1326
592.131	1350
592.183	1344
592.235	1352
592.287	1352
592.339	1378
592.391	1356
592.443	1378
592.495	1352
592.547	1372
592.599	1344
592.651	1362
592.703	1368
592.755	1348
592.807	1356
592.859	1362
592.911	1348
592.963	1376
593.015	1352
593.068	1346
593.12	1356
593.172	1340
593.224	1324
593.276	1392
593.328	1354
593.38	1386
593.432	1350
593.484	1398
593.536	1376
593.588	1396
593.64	1378
593.692	1388
593.744	1374
593.796	1352
593.848	1392
593.9	1378
593.952	1378
594.004	1370
594.056	1390
594.108	1388
594.16	1368
594.212	1382
594.264	1396
594.316	1404
594.368	1392
594.42	1416
594.472	1390
594.524	1382
594.576	1404
594.628	1412
594.68	1408
594.732	1414
594.784	1420
594.837	1426
594.889	1438
594.941	1406
594.993	1442
595.045	1340
595.097	1416
595.149	1414
595.201	1430
595.253	1426
595.305	1424
595.357	1448
595.409	1430
595.461	1432
595.513	1446
595.565	1438
595.617	1450
595.669	1484
595.721	1448
595.773	1470
595.825	1456
595.877	1448
595.929	1442
595.981	1490
596.033	1444
596.085	1534
596.137	1494
596.189	1494
596.241	1512
596.293	1484
596.345	1494
596.397	1490
596.449	1486
596.501	1548
596.553	1522
596.605	1514
596.657	1508
596.709	1490
596.761	1514
596.813	1504
596.865	1528
596.917	1524
596.969	1530
597.021	1540
597.073	1514
597.125	1532
