#Acq. time (s)=	3
#Accumulations=	2
#Range (nm)=	520...900
#Windows=	16
#Auto scanning=	On
#Autofocus=	Off
#AutoExposure=	Off
#Spike filter=	Multiple accum.
#Delay time (s)=	0
#Binning=	1
#Readout mode=	Signal
#DeNoise=	Off
#ICS correction=	Off
#Dark correction=	Off
#Inst. Process=	Off
#Detector temperature (°C)=	-59.98
#Instrument=	LabRAM HR Evol
#Detector=	Syncerity OE
#Objective=	x50_VIS
#Grating=	600 (500nm)
#ND Filter=	10%
#Laser=	514nm_Edge
#Hole=	199.981
#Range=	Auto
#StageXY=	Marzhauser
#StageZ=	Marzhauser
#X (µm)=	-58.2
#Y (µm)=	8027.4
#Z (µm)=	33.3
#Full time(mm:ss)=	2:38
#Project=	
#Sample=	
#Site=	
#Title=	PL_230124_Amostra_HPHT_sem_polir
#Remark=	
#Date=	31.01.2024 11:13
#Acquired=	31.01.2024 11:13:04
520.042	42
520.094	35.086
520.147	38.0454
520.199	40.9069
520.251	44.8535
520.304	36.3586
520.356	36.9476
520.408	39.7322
520.461	40.1709
520.513	37.1164
520.565	39.0594
520.618	38.7488
520.67	36.936
520.723	33.1956
520.775	34.2026
520.827	37.5116
520.88	40.2887
520.932	37.78
520.984	39.227
521.037	39.8463
521.089	37.0791
521.141	36.163
521.194	43.752
521.246	35.915
521.298	41.1723
521.351	42.6419
521.403	39.3632
521.455	40.9069
521.508	40.9057
521.56	39
521.612	37.3912
521.665	38.6965
521.717	37.2049
521.769	31.5239
521.822	37.3644
521.874	37.8917
521.926	42.7811
521.979	35.447
522.031	36.1129
522.083	42.7695
522.136	38.8814
522.188	34.4796
522.24	43.5111
522.293	42.8766
522.345	40.1257
522.397	40.2561
522.45	37.8708
522.502	42.4738
522.554	41
522.607	45.135
522.659	41
522.711	40.5588
522.764	39.5774
522.816	47
522.868	40.1455
522.921	38.1467
522.973	40.702
523.025	42.6054
523.078	40.39
523.13	38.4645
523.182	37.8428
523.234	39.4785
523.287	39.518
523.339	43.674
523.391	36.6612
523.444	37.8324
523.496	42.3248
523.548	40.6597
523.601	39.8615
523.653	39.3492
523.705	38.2922
523.758	42
523.81	38.3609
523.862	35.3655
523.915	44.4447
523.967	40.3749
524.019	41.0559
524.072	40.9546
524.124	40.2317
524.176	44.1944
524.229	38.5902
524.281	40
524.333	46.1958
524.385	43.2154
524.438	42
524.49	37.0361
524.542	41.5332
524.595	42.6329
524.647	36.5763
524.699	40.071
524.752	42.0512
524.804	40.532
524.856	37.2203
524.909	40.7776
524.961	38.2247
525.013	41.865
525.066	40.6853
525.118	45.078
525.17	38
525.222	47.7657
525.275	38.6543
525.327	43
525.379	37.2762
525.432	43.4866
525.484	38.2456
525.536	39.5041
525.589	40.7506
525.641	42.2515
525.693	38.5076
525.745	46.2343
525.798	39.7718
525.85	43.7063
525.902	41.5646
525.955	42.943
526.007	45.9371
526.059	47.8033
526.112	39.5402
526.164	35.8147
526.216	38.1793
526.268	47.8951
526.321	43.3912
526.373	39
526.425	37.8731
526.478	43.284
526.53	42.5734
526.582	42.7113
526.635	40.2902
526.687	41.1234
526.739	43.8811
526.791	41.7031
526.844	43.4033
526.896	42.3004
526.948	42.9091
527.001	41.695
527.053	41.6935
527.105	44.0745
527.157	45.5559
527.21	41.3132
527.262	40.7413
527.314	39
527.367	40
527.419	38.2821
527.471	40.3527
527.523	41.3741
527.576	42.9627
527.628	44.6807
527.68	48.0047
527.733	41.0035
527.785	43.6783
527.837	44.6368
527.889	44.7016
527.942	44.9755
527.994	43.7229
528.046	45.5769
528.099	49.6508
528.151	48.0524
528.203	41.8252
528.255	42.1595
528.308	47.3566
528.36	40.9231
528.412	42.8044
528.464	45.3636
528.517	40.9056
528.569	40.7343
528.621	43.2619
528.674	42.2564
528.726	46.3741
528.778	42.624
528.83	50.7576
528.883	42.5198
528.935	42.8531
528.987	41
529.039	46
529.092	47.8322
529.144	44.5618
529.196	42.8217
529.249	45.5786
529.301	40.2051
529.353	43
529.405	41.5991
529.458	40.6131
529.51	42.9686
529.562	44.5921
529.614	47.4103
529.667	48.2378
529.719	40.345
529.771	48.4161
529.823	44.4191
529.876	47
529.928	45.5769
529.98	46
530.033	43.8555
530.085	40.2867
530.137	43.9814
530.189	45.4336
530.242	45.8718
530.294	46
530.346	45.6799
530.398	47.2145
530.451	45
530.503	49.7622
530.555	44.8974
530.607	47
530.66	43.9068
530.712	44.0886
530.764	44.0839
530.816	46
530.869	45.3077
530.921	46.5361
530.973	46.669
531.025	47
531.078	48.9417
531.13	48.1072
531.182	49.3776
531.234	50.0443
531.287	44.4406
531.339	48.5524
531.391	46.4837
531.443	41.4854
531.496	45.4872
531.548	46.5105
531.6	41.5245
531.652	48.9883
531.705	47.4965
531.757	44.9977
531.809	47.9977
531.861	48.979
531.914	47.5524
531.966	45.9393
532.018	50.0373
532.07	43.0699
532.123	44.4021
532.175	53.5524
532.227	43.9604
532.279	49.4352
532.332	51.0466
532.384	47.5769
532.436	43
532.488	43.9394
532.541	44.6604
532.593	47.1958
532.645	51.1445
532.697	52.4604
532.75	39.7071
532.802	42.3706
532.854	49
532.906	49.9044
532.958	45.8471
533.011	47.4755
533.063	52.5548
533.115	49
533.167	49.4714
533.22	43.4394
533.272	43.7436
533.324	46.2637
533.376	45.4324
533.429	48.0027
533.481	49.8636
533.533	46.8373
533.585	48.4297
533.638	51.2234
533.69	48.0473
533.742	49.3175
533.794	46.5931
533.846	47.3089
533.899	46.9111
533.951	49.3575
534.003	47.3655
534.055	46.6573
534.108	46.9452
534.16	48.2051
534.212	52.6115
534.264	49.4544
534.316	51.3527
534.369	43.1635
534.421	48.6232
534.473	50.589
534.525	51.8165
534.578	52
534.63	55.5454
534.682	54.1957
534.734	52.0711
534.786	53.2422
534.839	54.4685
534.891	52.0465
534.943	54
534.995	48.3912
535.047	48.8748
535.1	49.6108
535.152	55.535
535.204	49.9556
535.256	56.5324
535.309	53.3123
535.361	53.3491
535.413	50.3282
535.465	50.1943
535.517	57.7517
535.57	57.2283
535.622	53.9918
535.674	51.7436
535.726	50.0942
535.778	52.4714
535.831	51.1765
535.883	52.4889
535.935	53.5232
535.987	58.053
536.039	52.8203
536.092	55.1441
536.144	56.4164
536.196	55.1632
536.248	58.3939
536.301	51.181
536.353	55.6304
536.405	57.092
536.457	51.3674
536.509	55.9801
536.562	52.9116
536.614	52.9047
536.666	51.9024
536.718	52.4971
536.77	51.3381
536.823	51.1295
536.875	46.9106
536.927	54.7056
536.979	54.4505
537.031	50.7025
537.083	46.6222
537.136	48.5165
537.188	51.9668
537.24	55.356
537.292	50.5225
537.344	52.0701
537.397	54.6363
537.449	53.0248
537.501	49.6392
537.553	48.0938
537.605	55.9655
537.658	57.745
537.71	50.406
537.762	51.6303
537.814	54.7393
537.866	51.8978
537.919	53.7626
537.971	48.1657
538.023	55.3445
538.075	54.1476
538.127	54.7973
538.18	52.0083
538.232	55.8596
538.284	45.7479
538.336	51.5626
538.388	56.6933
538.44	62.2807
538.493	53.6133
538.545	49.5769
538.597	53.0119
538.649	59.1185
538.701	57.1771
538.754	53.247
538.806	51.7726
538.858	57.1007
538.91	59.557
538.962	53.8995
539.014	57.9373
539.067	48.9178
539.119	59.4926
539.171	60.21
539.223	58.3132
539.275	56.244
539.327	55.3733
539.38	53.4653
539.432	57.5642
539.484	55.8085
539.536	50.6175
539.588	58.1154
539.641	58.4497
539.693	58.3238
539.745	67.6279
539.797	55.1236
539.849	53.2129
539.901	56.0902
539.954	54.2118
540.006	51.4553
540.058	57.1072
540.11	63.108
540.162	58.243
540.214	55.1143
540.267	54.1878
540.319	56.2949
540.371	58.7115
540.423	62.4066
540.475	60.5389
540.527	58.7303
540.58	53.726
540.632	59.3924
540.684	61.7041
540.736	59.1851
540.788	58.9551
540.84	55.9508
540.892	64.2063
540.945	60.5949
540.997	56.7193
541.049	54.9726
541.101	55.77
541.153	61.597
541.205	62.1574
541.258	60.2494
541.31	65.6538
541.362	57.9521
541.414	62.9046
541.466	54.7617
541.518	57.9267
541.57	62.7417
541.623	61.2251
541.675	57.1171
541.727	65.032
541.779	62.5647
541.831	59.5835
541.883	54.7751
541.936	57.9252
541.988	57.3439
542.04	55.2532
542.092	61.5765
542.144	65.4774
542.196	60.6209
542.248	59.1557
542.301	64.8461
542.353	59.3072
542.405	58.4403
542.457	63.2913
542.509	62.0792
542.561	69.097
542.613	63.5742
542.666	54.339
542.718	59.295
542.77	69.6479
542.822	73.3929
542.874	66.865
542.926	67.996
542.978	65.7262
543.031	68.8761
543.083	61.7127
543.135	69.0945
543.187	60.2595
543.239	69.8295
543.291	62.8994
543.343	61.8039
543.396	70.2825
543.448	62.1887
543.5	60.5057
543.552	70.1904
543.604	61.7565
543.656	68.2014
543.708	64.587
543.76	65.5479
543.813	71.0318
543.865	73.7032
543.917	62.4995
543.969	70.6253
544.021	65.3944
544.073	77.215
544.125	63.9182
544.177	68.2336
544.23	73.8362
544.282	68.9092
544.334	66.6598
544.386	70.6106
544.438	70
544.49	75.2432
544.542	63.834
544.594	64.325
544.647	64.773
544.699	65.6894
544.751	65.779
544.803	78.2019
544.855	74.8062
544.907	78.5123
544.959	74.8255
545.011	72.8285
545.064	68.3946
545.116	68.2387
545.168	67.3615
545.22	71.1415
545.272	65.4048
545.324	67.6607
545.376	65.2557
545.428	67.9164
545.48	70.2214
545.533	68.3315
545.585	65.4225
545.637	81.4657
545.689	73.5641
545.741	75.2513
545.793	71.0863
545.845	75.1725
545.897	77.7168
545.949	72.9784
546.002	72.1057
546.054	77.1042
546.106	68.2413
546.158	74.3617
546.21	69.4888
546.262	73.1348
546.314	72.5053
546.366	75.3819
546.418	71.213
546.471	84.8203
546.523	76.5075
546.575	78.9391
546.627	76.7534
546.679	80.8511
546.689	81.9379
546.741	75.975
546.793	75.946
546.845	71.9881
546.898	75.9399
546.95	85.7861
547.002	79.8349
547.054	66.0817
547.106	74.0139
547.159	83.8355
547.211	81.7658
547.263	77.8049
547.315	87.5122
547.368	83.7371
547.42	76.0988
547.472	76.2086
547.524	78.2276
547.577	89.6898
547.629	83.8698
547.681	89.6111
547.733	85.6454
547.785	83.9103
547.838	89.9136
547.89	79.9522
547.942	80.1571
547.994	99.4762
548.047	83.4108
548.099	77.8603
548.151	86.0519
548.203	84.1465
548.255	76.6306
548.308	84.2685
548.36	97.0228
548.412	87.4072
548.464	84.0339
548.517	80.2928
548.569	93.2073
548.621	89.7747
548.673	83.8726
548.725	86
548.778	96.8493
548.83	91.2029
548.882	89.4689
548.934	98.4107
548.987	89.0759
549.039	79.9267
549.091	83.8699
549.143	82.4837
549.195	83.8763
549.248	89.3872
549.3	85.6339
549.352	88.9397
549.404	91.0278
549.456	89.6983
549.509	79.061
549.561	95.6528
549.613	87.3891
549.665	97.2271
549.718	83.8676
549.77	91.8644
549.822	91.8746
549.874	99.9369
549.926	82.0716
549.979	108.677
550.031	97.4885
550.083	104.748
550.135	89.0915
550.187	103.546
550.24	101.429
550.292	105.844
550.344	95.9957
550.396	97.3252
550.448	101.119
550.501	109.224
550.553	93.7924
550.605	100.606
550.657	100.835
550.709	96.8294
550.762	95.9926
550.814	109.81
550.866	112.051
550.918	111.82
550.97	113.11
551.023	108.839
551.075	105.126
551.127	111.579
551.179	109.38
551.231	117.157
551.284	110.532
551.336	117.911
551.388	110.062
551.44	115.245
551.492	132.142
551.545	119.563
551.597	127.138
551.649	136.741
551.701	129.78
551.753	144.248
551.806	149.061
551.858	141.434
551.91	163.85
551.962	162.262
552.014	170.341
552.067	190.631
552.119	211.428
552.171	244.39
552.223	270.997
552.275	354.218
552.327	528.109
552.38	1087.9
552.432	2315.27
552.484	4425.11
552.536	8206.82
552.588	12454.7
552.641	10595.9
552.693	5985.41
552.745	2581.71
552.797	987.259
552.849	515.558
552.901	354.971
552.954	265.633
553.006	222.961
553.058	199.226
553.11	186.935
553.162	170.695
553.215	158.556
553.267	155.178
553.319	161.129
553.371	154.446
553.423	136.048
553.475	140.774
553.528	138.203
553.58	123.513
553.632	123.362
553.684	123.56
553.736	133.886
553.788	130.152
553.841	127.093
553.893	135.476
553.945	127.425
553.997	136.883
554.049	120.914
554.102	125.02
554.154	120.99
554.206	130
554.258	123.896
554.31	124.94
554.362	126.829
554.414	129.235
554.467	129.166
554.519	126.998
554.571	129.29
554.623	120
554.675	117.91
554.727	136.48
554.78	130.377
554.832	127.77
554.884	131.733
554.936	124.267
554.988	126.339
555.04	133.1
555.093	127.549
555.145	132.851
555.197	127.406
555.249	133.032
555.301	123.012
555.353	130.791
555.406	125.011
555.458	130.729
555.51	126.815
555.562	132.371
555.614	128.55
555.666	128.847
555.719	132.525
555.771	132.941
555.823	137.528
555.875	133.888
555.927	123.878
555.979	134.403
556.031	137.907
556.084	132.289
556.136	132.163
556.188	137.493
556.24	140.1
556.292	129.9
556.344	137.327
556.396	142.298
556.449	147.745
556.501	138.293
556.553	132.619
556.605	151.681
556.657	145.941
556.709	141.233
556.762	139.17
556.814	143.122
556.866	149.103
556.918	143.619
556.97	130.579
557.022	142.706
557.074	148.108
557.127	138.982
557.179	133.591
557.231	143.202
557.283	137.32
557.335	148.003
557.387	143.886
557.439	138.409
557.492	162.008
557.544	141.11
557.596	142.051
557.648	153.846
557.7	148.113
557.752	149.981
557.804	147.265
557.856	157.856
557.909	155.213
557.961	145.557
558.013	153.983
558.065	152.045
558.117	157.895
558.169	145.425
558.221	157.012
558.273	145.776
558.326	160.712
558.378	154.021
558.43	161.766
558.482	156.428
558.534	164.134
558.586	164.263
558.638	156.642
558.691	155.84
558.743	152.87
558.795	143.161
558.847	147.05
558.899	155.914
558.951	156.49
559.003	154.588
559.055	155.727
559.108	164.834
559.16	156.426
559.212	157.263
559.264	164.845
559.316	166.485
559.368	162.623
559.42	163.333
559.472	159.489
559.525	167.66
559.577	169.907
559.629	145.862
559.681	166.156
559.733	164.932
559.785	170.229
559.837	159.467
559.889	168.511
559.941	166.938
559.994	173.854
560.046	158.444
560.098	164.081
560.15	172.229
560.202	168.31
560.254	174.734
560.306	166.414
560.358	164.835
560.41	167.617
560.463	172.019
560.515	172.793
560.567	182.933
560.619	166.603
560.671	177.488
560.723	176.135
560.775	180.976
560.827	183.018
560.879	180.928
560.932	174.108
560.984	182.363
561.036	178.715
561.088	181.677
561.14	181.647
561.192	185.109
561.244	184.702
561.296	183.657
561.348	176.815
561.4	190.414
561.453	189.097
561.505	178.949
561.557	189.235
561.609	184.368
561.661	184.348
561.713	188.341
561.765	186.835
561.817	196.524
561.869	188.482
561.921	185.132
561.974	188.504
562.026	200.162
562.078	208.038
562.13	194.116
562.182	192.646
562.234	195.396
562.286	193.292
562.338	196.87
562.39	194.815
562.442	183.401
562.494	194.743
562.547	202.757
562.599	205.458
562.651	196.958
562.703	194.792
562.755	201.283
562.807	209.917
562.859	197.878
562.911	203.598
562.963	209.325
563.015	207.482
563.067	202.545
563.12	206.747
563.172	213.71
563.224	214.524
563.276	222.05
563.328	211.093
563.38	211.173
563.432	210.104
563.484	218.419
563.536	209.831
563.588	219.866
563.64	218.981
563.692	218.757
563.744	225.187
563.797	209.968
563.849	226.753
563.901	217.917
563.953	217.053
564.005	213.841
564.057	211.19
564.109	216.233
564.161	222.227
564.213	208.166
564.265	219.835
564.317	225.284
564.369	224.887
564.421	222.604
564.474	229.432
564.526	224.797
564.578	222.241
564.63	231.155
564.682	230.117
564.734	229.666
564.786	234.137
564.838	231.129
564.89	229.675
564.942	232.658
564.994	225.426
565.046	233.535
565.098	230.941
565.15	227.359
565.202	237.019
565.255	248.55
565.307	253.247
565.359	239.669
565.411	234.624
565.463	231.553
565.515	237.361
565.567	237.08
565.619	234.667
565.671	242.925
565.723	248.763
565.775	242.059
565.827	237.67
565.879	246.317
565.931	242.525
565.983	238.533
566.035	241.366
566.087	237.953
566.139	245.51
566.192	246.331
566.244	249.603
566.296	257.227
566.348	253.288
566.4	252.296
566.452	256.955
566.504	264.61
566.556	254.276
566.608	264.421
566.66	262.982
566.712	255.43
566.764	268.389
566.816	254.966
566.868	259.778
566.92	260.919
566.972	267.496
567.024	261.97
567.076	259.612
567.128	267.545
567.18	271.042
567.232	261.947
567.285	272.762
567.337	268.439
567.389	265.336
567.441	265.589
567.493	266.334
567.545	274.694
567.597	282.835
567.649	278.667
567.701	273.794
567.753	275.102
567.805	271.147
567.857	279.895
567.909	279.38
567.961	276.403
568.013	280.623
568.065	280.276
568.117	273.677
568.169	283.536
568.221	295.272
568.273	288.511
568.325	294.007
568.377	300.089
568.429	290.398
568.481	291.893
568.533	301.015
568.585	296.313
568.637	292.429
568.69	289.515
568.742	288.818
568.794	301.574
568.846	317.051
568.898	302.904
568.95	294.06
569.002	299.97
569.054	305.742
569.106	312.506
569.158	310.619
569.21	315.238
569.262	320.978
569.314	324.833
569.366	315.723
569.418	313.131
569.47	308.992
569.522	313.155
569.574	328.283
569.626	330.388
569.678	311.365
569.73	316.337
569.782	325.772
569.834	323.341
569.886	324.264
569.938	326.939
569.99	323.212
570.042	325.104
570.094	319.702
570.146	319.366
570.198	336.833
570.25	345.947
570.302	340.469
570.354	344.12
570.406	351.347
570.458	347.693
570.51	354.727
570.562	362.446
570.614	364.941
570.666	356.11
570.718	345.278
570.77	350.789
570.822	352.862
570.874	356.695
570.926	362.133
570.978	353.806
571.03	367.518
571.082	381.416
571.134	385.084
571.186	379.994
571.238	369.265
571.29	391.541
571.342	399.633
571.394	376.806
571.446	394.575
571.498	406.841
571.55	401.021
571.602	399.558
571.654	414.174
571.706	404.295
571.758	421.024
571.81	426.482
571.862	431.989
571.914	436.833
571.966	430.003
572.018	432.388
572.07	442.242
572.122	447.494
572.174	450.049
572.226	454.479
572.278	456.539
572.33	461.152
572.382	464.267
572.434	471.383
572.486	476.217
572.538	480.999
572.59	491.637
572.642	503.125
572.694	511.461
572.746	508.835
572.798	502.273
572.85	507.386
572.902	507.295
572.954	508.565
573.006	506.979
573.058	543.017
573.11	530.799
573.162	551.411
573.214	561.776
573.266	573.405
573.302	558.026
573.355	571.966
573.407	571.947
573.459	581.884
573.511	583.885
573.563	605.833
573.615	609.913
573.667	605.871
573.719	606.335
573.772	642.068
573.824	628.439
573.876	644.106
573.928	677.406
573.98	691.303
574.032	687.965
574.084	694.103
574.136	703.568
574.188	743.903
574.241	724.914
574.293	727.645
574.345	753.379
574.397	771.291
574.449	774.499
574.501	791.827
574.553	800.901
574.605	839.756
574.657	829.484
574.71	854.271
574.762	874.471
574.814	871.165
574.866	871.244
574.918	910.43
574.97	900.065
575.022	926.056
575.074	922.216
575.126	950.199
575.178	969.218
575.231	974.797
575.283	978.739
575.335	997.424
575.387	991.679
575.439	1026.38
575.491	1028.87
575.543	1029.96
575.595	1061.43
575.647	1032.85
575.7	1049.36
575.752	1047.46
575.804	1054.62
575.856	1088.72
575.908	1081.99
575.96	1047.28
576.012	1028.15
576.064	1056.18
576.116	1039.14
576.168	1065.71
576.22	1039.36
576.273	1057
576.325	998.045
576.377	1002.36
576.429	1004.63
576.481	965.143
576.533	996.666
576.585	982.634
576.637	989.857
576.689	967.73
576.741	951.437
576.793	921.829
576.846	907.661
576.898	916.483
576.95	903.878
577.002	899.182
577.054	885.236
577.106	893.145
577.158	877.053
577.21	845.689
577.262	847.222
577.314	836.96
577.366	834.826
577.418	834.686
577.471	805.727
577.523	807.283
577.575	805.532
577.627	802.219
577.679	771.824
577.731	773.204
577.783	783.807
577.835	785.536
577.887	754.939
577.939	764.734
577.991	729.282
578.043	738.487
578.095	744.135
578.148	732.786
578.2	714.991
578.252	736.355
578.304	722.213
578.356	690.336
578.408	700.754
578.46	702.345
578.512	699.594
578.564	682.438
578.616	669.167
578.668	676.631
578.72	683.873
578.772	679.021
578.824	667.451
578.877	668.394
578.929	645.97
578.981	644.666
579.033	655.336
579.085	677.766
579.137	653.057
579.189	685.043
579.241	653.595
579.293	650.564
579.345	647.207
579.397	655.85
579.449	670.293
579.501	652.634
579.553	657.827
579.605	643.06
579.658	645.544
579.71	647.11
579.762	660.565
579.814	637.911
579.866	651.876
579.918	653.07
579.97	653.334
580.022	656.626
580.074	655.068
580.126	655.83
580.178	643.577
580.23	638.657
580.282	649.973
