#Acq. time (s)=	3
#Accumulations=	2
#Range (nm)=	520...900
#Windows=	16
#Auto scanning=	On
#Autofocus=	Off
#AutoExposure=	Off
#Spike filter=	Multiple accum.
#Delay time (s)=	0
#Binning=	1
#Readout mode=	Signal
#DeNoise=	Off
#ICS correction=	Off
#Dark correction=	Off
#Inst. Process=	Off
#Detector temperature (°C)=	-59.98
#Instrument=	LabRAM HR Evol
#Detector=	Syncerity OE
#Objective=	x50_VIS
#Grating=	600 (500nm)
#ND Filter=	10%
#Laser=	514nm_Edge
#Hole=	199.981
#Range=	Auto
#StageXY=	Marzhauser
#StageZ=	Marzhauser
#X (µm)=	-9419.6
#Y (µm)=	-697.2
#Z (µm)=	273.7
#Full time(mm:ss)=	2:39
#Project=	
#Sample=	
#Site=	
#Title=	PL_230124_Amostra_marrom
#Remark=	
#Date=	31.01.2024 11:22
#Acquired=	31.01.2024 11:22:10
520.042	47
520.094	44.1291
520.147	46.9092
520.199	46
520.251	40.1954
520.304	39.8463
520.356	47
520.408	47.8393
520.461	42.2279
520.513	39.8254
520.565	50.0594
520.618	43.1256
520.67	50.8079
520.723	43.1956
520.775	46.865
520.827	49.0698
520.88	45
520.932	46.8533
520.984	46.9243
521.037	47.2305
521.089	47.7628
521.141	44.326
521.194	43.0827
521.246	46
521.298	46.4831
521.351	40.5372
521.403	44.9092
521.455	39.0931
521.508	37.1886
521.56	42.8068
521.612	40
521.665	44.7977
521.717	37.2049
521.769	41.7905
521.822	43.2119
521.874	45.7835
521.926	39.2189
521.979	40.1118
522.031	44.7742
522.083	47.539
522.136	39.8302
522.188	45.4005
522.24	45.1222
522.293	48.7532
522.345	42.2515
522.397	47.3842
522.45	45.6123
522.502	47.1315
522.554	45.1339
522.607	38.7299
522.659	45.8626
522.711	46.8603
522.764	47.2817
522.816	41.1432
522.868	41.4366
522.921	46.2666
522.973	45.447
523.025	46.3946
523.078	43.61
523.13	47.2258
523.182	41.943
523.234	49.8836
523.287	47.3213
523.339	48
523.391	42.3306
523.444	42
523.496	44
523.548	45.3403
523.601	44.3108
523.653	51.4761
523.705	44.4156
523.758	49.2875
523.81	44.7218
523.862	45.2689
523.915	47.3702
523.967	43
524.019	47.6224
524.072	48
524.124	50.6158
524.176	48.3609
524.229	44.213
524.281	50.2037
524.333	45.2028
524.385	46.3923
524.438	47.4098
524.49	46.5856
524.542	43.4191
524.595	46.789
524.647	46
524.699	47.2142
524.752	50.3504
524.804	43.6566
524.856	46.1189
524.909	47.4447
524.961	46.7753
525.013	45
525.066	43.6853
525.118	48.7695
525.17	49.5343
525.222	48.2343
525.275	46
525.327	50.0454
525.379	48.4476
525.432	46.5134
525.484	48.5087
525.536	49.4959
525.589	50.7506
525.641	43.5029
525.693	45.7462
525.745	47.2552
525.798	45.5145
525.85	41.4825
525.902	46.5215
525.955	44.4715
526.007	50.2028
526.059	41.6065
526.112	44.9197
526.164	50.2716
526.216	45.7264
526.268	47
526.321	46
526.373	45.8392
526.425	50.0279
526.478	50.1362
526.53	50
526.582	52.4226
526.635	37.3217
526.687	40.8312
526.739	44.8252
526.791	47.1874
526.844	52.1049
526.896	45.2014
526.948	45.4848
527.001	49.915
527.053	46
527.105	42.383
527.157	47.6888
527.21	45.6263
527.262	50.4266
527.314	45.4959
527.367	41.042
527.419	51.3974
527.471	51.3236
527.523	47.6504
527.576	49.3644
527.628	52.6492
527.68	54.3411
527.733	49.0035
527.785	51.3357
527.837	47.3376
527.889	49.6807
527.942	41.6585
527.994	48.2771
528.046	51.3462
528.099	53.3015
528.151	45.4033
528.203	49.2937
528.255	47.0652
528.308	50.6434
528.36	48.2821
528.412	46
528.464	50.8182
528.517	50.5408
528.569	45.3671
528.621	49.631
528.674	55.8846
528.726	47.4965
528.778	45.8719
528.83	48
528.883	44.7599
528.935	49.6177
528.987	44.6892
529.039	46.9044
529.092	49.9464
529.144	45
529.196	44.4289
529.249	47
529.301	46.1923
529.353	48
529.405	44.5991
529.458	49.1935
529.51	48.2189
529.562	49
529.614	45.1795
529.667	51.4126
529.719	48.5862
529.771	45
529.823	50.4191
529.876	52.8963
529.928	49.1154
529.98	47.8508
530.033	48.289
530.085	46.2867
530.137	47
530.189	51.1329
530.242	51
530.294	49.1259
530.346	52.44
530.398	49.4429
530.451	52
530.503	52.5524
530.555	44.5513
530.607	48.451
530.66	48.5466
530.712	51.9114
530.764	53.542
530.816	48.4604
530.869	49.5385
530.921	57.4639
530.973	47.8648
531.025	46.1888
531.078	48.4709
531.13	50.5268
531.182	55.4266
531.234	47
531.287	51.0793
531.339	49.9301
531.391	49.0326
531.443	45.9708
531.496	48.5641
531.548	46.4476
531.6	53.5571
531.652	51.4709
531.705	48.007
531.757	53.4965
531.809	49.5012
531.861	51.4965
531.914	52.9767
531.966	48.5683
532.018	52.4347
532.07	48.0466
532.123	47.9441
532.175	53.035
532.227	50.4406
532.279	48.0432
532.332	51.4301
532.384	53.5769
532.436	48.0559
532.488	46.9394
532.541	51.4037
532.593	52
532.645	54.289
532.697	46.3019
532.75	52.5414
532.802	50.0862
532.854	51.2727
532.906	53
532.958	54.4504
533.011	53.8671
533.063	52.007
533.115	52.4569
533.167	52.0875
533.22	55.803
533.272	47.7436
533.324	51.6978
533.376	52.8648
533.429	58.2835
533.481	56.294
533.533	55.8256
533.585	54.7109
533.638	54.9022
533.69	52.8095
533.742	52.2901
533.794	50.7292
533.846	56.3275
533.899	53.0106
533.951	57.894
534.003	59.7767
534.055	58.7443
534.108	56.8409
534.16	58.6077
534.212	57.1578
534.264	62.0742
534.316	59.8061
534.369	60.4182
534.421	58.8184
534.473	60.4162
534.525	67.3183
534.578	66.5234
534.63	64.2257
534.682	68.4326
534.734	63.5088
534.786	68.8196
534.839	70.7726
534.891	70.5755
534.943	65.8743
534.995	69.7713
535.047	67.912
535.1	70.9013
535.152	67.1961
535.204	72.1061
535.256	68.7993
535.309	68.733
535.361	66.654
535.413	65.2993
535.465	65.3212
535.517	66.2889
535.57	73.7447
535.622	66.6618
535.674	68.8787
535.726	65.2123
535.778	63.9266
535.831	71.219
535.883	68.0721
535.935	64.0411
535.987	64.064
536.039	61.4776
536.092	68.0418
536.144	62.4149
536.196	62.1271
536.248	58.5893
536.301	65.2574
536.353	63.8858
536.405	64.2488
536.457	58.1889
536.509	63.9179
536.562	57.8775
536.614	53.1045
536.666	52.2329
536.718	56.392
536.77	61.3533
536.823	59.1409
536.875	51.9772
536.927	56.8151
536.979	53.514
537.031	58.9511
537.083	61.0998
537.136	57.6579
537.188	60.2525
537.24	59.6282
537.292	59.5773
537.344	58.141
537.397	57.223
537.449	53.2364
537.501	64.3624
537.553	63.9159
537.605	64.0689
537.658	58.2898
537.71	63.5843
537.762	67.7258
537.814	61.4406
537.866	54.5345
537.919	62.6595
537.971	62.3469
538.023	59.6536
538.075	60.7045
538.127	60.7548
538.18	60.5597
538.232	58
538.284	60.1453
538.336	65.5022
538.388	69.4221
538.44	62.0858
538.493	56.8043
538.545	62.1905
538.597	55.9309
538.649	59.9447
538.701	61.7257
538.754	61.4122
538.806	64.8685
538.858	64.3562
538.91	62.4661
538.962	67.152
539.014	62.7143
539.067	57.771
539.119	69.4305
539.171	62.3333
539.223	69.0731
539.275	61.8257
539.327	58.3142
539.38	64.8071
539.432	60.9139
539.484	59.8842
539.536	66.3062
539.588	65.2167
539.641	68.7147
539.693	65.0071
539.745	59.8318
539.797	68
539.849	69.1177
539.901	65.2318
539.954	65.4931
540.006	66.6086
540.058	72.0962
540.11	67.2082
540.162	70.4912
540.214	69.2375
540.267	63.2346
540.319	67.5286
540.371	64.3629
540.423	67.5284
540.475	66.7721
540.527	71.4438
540.58	74.7893
540.632	72.875
540.684	64.3379
540.736	75.5583
540.788	60.1051
540.84	69.0518
540.892	73.8041
540.945	63.2782
540.997	63.1362
541.049	68.4247
541.101	69.1275
541.153	67.8218
541.205	65.6275
541.258	78.364
541.31	77.6538
541.362	68.8023
541.414	67.8859
541.466	66.1759
541.518	65.5369
541.57	69.7965
541.623	65.815
541.675	70.283
541.727	69.9665
541.779	66.7397
541.831	66.3283
541.883	73.5184
541.936	64.3731
541.988	69.2086
542.04	71.3669
542.092	73.5263
542.144	70.865
542.196	75.7739
542.248	78.4591
542.301	72.8461
542.353	68.5887
542.405	77.2211
542.457	69.8578
542.509	79.8113
542.561	68.4907
542.613	79.8019
542.666	76.6975
542.718	69.4832
542.77	67.2178
542.822	72.0239
542.874	78.266
542.926	74.2861
542.978	73.3992
543.031	72.8278
543.083	71.456
543.135	73.7117
543.187	73.0811
543.239	61.7322
543.291	74.5409
543.343	75.2622
543.396	71.08
543.448	80.4939
543.5	79.0615
543.552	76.7659
543.604	82.0533
543.656	71.3007
543.708	86.484
543.76	82.6665
543.813	85.1901
543.865	72.7945
543.917	81.2298
543.969	76.4819
544.021	84.5089
544.073	83.7058
544.125	76.6158
544.177	77.1389
544.23	81.2785
544.282	84.4249
544.334	88.9109
544.386	77.4333
544.438	81.4198
544.49	76.7568
544.542	74.7957
544.594	80.1823
544.647	83.6896
544.699	79.233
544.751	92.2434
544.803	83.8843
544.855	83.2505
544.907	81.126
544.959	85.8301
545.011	84.5741
545.064	87.3588
545.116	81.0472
545.168	85.4946
545.22	84.5464
545.272	82.3243
545.324	78.7542
545.376	85.285
545.428	91.3952
545.48	81.523
545.533	79.1241
545.585	97.0989
545.637	99.6791
545.689	92.9664
545.741	81.9564
545.793	88.6461
545.845	90.1292
545.897	93.1303
545.949	90.6901
546.002	100.239
546.054	98.4015
546.106	95.8559
546.158	90.9748
546.21	90.0744
546.262	85.1979
546.314	90.7125
546.366	90.2836
546.418	86.7656
546.471	81.1773
546.523	84.9214
546.575	92.5466
546.627	98.9106
546.679	90.2926
546.689	88.1024
546.741	94.0033
546.793	99.9518
546.845	102.015
546.898	99.9726
546.95	107.833
547.002	99.9827
547.054	107.815
547.106	98.0034
547.159	105.846
547.211	109.794
547.263	109.744
547.315	92.3016
547.368	102.087
547.42	92.3912
547.472	109.924
547.524	108.218
547.577	98.3191
547.629	103.861
547.681	104.065
547.733	115.822
547.785	90.697
547.838	107.827
547.89	111.515
547.942	119.159
547.994	102.143
548.047	104.181
548.099	100.356
548.151	108.033
548.203	108.466
548.255	110.051
548.308	100.314
548.36	113.771
548.412	107.565
548.464	111.132
548.517	103.843
548.569	114.65
548.621	109.689
548.673	122.77
548.725	118.942
548.778	110.304
548.83	112.346
548.882	117.333
548.934	108.025
548.987	105.077
549.039	108.744
549.091	101.223
549.143	120.322
549.195	126.721
549.248	108.768
549.3	121.347
549.352	110.531
549.404	117.569
549.456	124.318
549.509	119.56
549.561	129.377
549.613	121.074
549.665	123.166
549.718	123.241
549.77	124.493
549.822	120.089
549.874	125.766
549.926	120.748
549.979	125.3
550.031	127.055
550.083	127.27
550.135	116.56
550.187	131.735
550.24	133.239
550.292	118.766
550.344	126.757
550.396	124.192
550.448	126.294
550.501	134.1
550.553	120.111
550.605	130.205
550.657	121.748
550.709	134
550.762	136.09
550.814	134.977
550.866	132.547
550.918	137.032
550.97	142.379
551.023	141.242
551.075	135.938
551.127	136.746
551.179	147.503
551.231	137.409
551.284	136.102
551.336	153.065
551.388	159.736
551.44	159.524
551.492	160.559
551.545	164.839
551.597	167.949
551.649	168.219
551.701	165.665
551.753	177.825
551.806	176.291
551.858	185.785
551.91	193.007
551.962	185.437
552.014	209.497
552.067	222.797
552.119	239.096
552.171	271.382
552.223	319.754
552.275	407.057
552.327	628.065
552.38	1361.88
552.432	2557.6
552.484	4052.65
552.536	7408.6
552.588	11746
552.641	10453.9
552.693	6164.01
552.745	2816.54
552.797	1172.64
552.849	580.097
552.901	403.705
552.954	312.022
553.006	267.484
553.058	237.826
553.11	232.396
553.162	204.374
553.215	210.168
553.267	198.829
553.319	192.523
553.371	188.337
553.423	188.256
553.475	178.219
553.528	178.499
553.58	169.054
553.632	183.424
553.684	172.186
553.736	166.156
553.788	165.468
553.841	174.647
553.893	162.336
553.945	164.337
553.997	163.308
554.049	176.732
554.102	173.986
554.154	158.385
554.206	173.026
554.258	168.578
554.31	175.364
554.362	166.829
554.414	152.716
554.467	171.934
554.519	168.735
554.571	171.097
554.623	178.982
554.675	176.108
554.727	172.642
554.78	177.086
554.832	166.056
554.884	166.549
554.936	160.724
554.988	175.414
555.04	179.081
555.093	173.078
555.145	166.209
555.197	161.387
555.249	180.921
555.301	177.855
555.353	173.802
555.406	170.164
555.458	181.998
555.51	174.099
555.562	189.19
555.614	167.848
555.666	179.44
555.719	176.264
555.771	172.063
555.823	184.842
555.875	191.284
555.927	189.374
555.979	190.762
556.031	185.104
556.084	191.852
556.136	182.188
556.188	194.534
556.24	188.038
556.292	180.377
556.344	198.47
556.396	197.738
556.449	195.23
556.501	196.874
556.553	199.446
556.605	196.692
556.657	196.415
556.709	204.581
556.762	198.277
556.814	208.526
556.866	202.593
556.918	199.263
556.97	211.914
557.022	215.131
557.074	204.019
557.127	216.977
557.179	199.042
557.231	216.449
557.283	206.003
557.335	207.253
557.387	207.284
557.439	209.296
557.492	218.688
557.544	216.809
557.596	223.804
557.648	211.812
557.7	220.476
557.752	221.841
557.804	207.636
557.856	213.013
557.909	208.439
557.961	235.378
558.013	225.966
558.065	231.165
558.117	226.558
558.169	236.434
558.221	226.244
558.273	234.398
558.326	228.226
558.378	242.327
558.43	241.559
558.482	229.786
558.534	239.992
558.586	242.284
558.638	234.642
558.691	234.492
558.743	242.52
558.795	244.929
558.847	246.905
558.899	230.663
558.951	235.065
559.003	236.861
559.055	239.088
559.108	246.514
559.16	241.087
559.212	238.47
559.264	237.904
559.316	233.426
559.368	245.385
559.42	238.162
559.472	227.218
559.525	229.34
559.577	249.274
559.629	240.742
559.681	227.106
559.733	240.903
559.785	242.877
559.837	244.864
559.889	239.114
559.941	239.01
559.994	256.648
560.046	240.649
560.098	246.462
560.15	245.127
560.202	249.992
560.254	251.759
560.306	251.158
560.358	259.189
560.41	250.648
560.463	245.06
560.515	253.435
560.567	256.757
560.619	256.754
560.671	259.887
560.723	250.37
560.775	258.11
560.827	254.419
560.879	245.384
560.932	259.884
560.984	262.441
561.036	260.212
561.088	268.759
561.14	259.81
561.192	266.672
561.244	272.587
561.296	265.173
561.348	273.446
561.4	275.699
561.453	271.456
561.505	271.802
561.557	268.585
561.609	275.838
561.661	285.04
561.713	277.364
561.765	278.196
561.817	275.711
561.869	272.771
561.921	276.467
561.974	270.881
562.026	275.118
562.078	297.045
562.13	287.06
562.182	298.931
562.234	299.189
562.286	295.511
562.338	280.005
562.39	294.192
562.442	293.524
562.494	296.339
562.547	292.722
562.599	294.304
562.651	285.387
562.703	296.857
562.755	303.281
562.807	296.906
562.859	289.499
562.911	302.217
562.963	288.19
563.015	298.861
563.067	312.907
563.12	313.215
563.172	308.598
563.224	306.717
563.276	311.178
563.328	315.49
563.38	307.716
563.432	309.475
563.484	333.811
563.536	327.438
563.588	316.222
563.64	318.146
563.692	326.455
563.744	315.355
563.797	308.662
563.849	320.593
563.901	326.784
563.953	315.02
564.005	312.452
564.057	314.282
564.109	319.574
564.161	332.297
564.213	336.978
564.265	340.864
564.317	328.945
564.369	333.481
564.421	322.639
564.474	329.072
564.526	328.632
564.578	321.77
564.63	332.333
564.682	337.208
564.734	345.614
564.786	341.135
564.838	337.606
564.89	339.948
564.942	345.471
564.994	345.426
565.046	340.656
565.098	352.437
565.15	352.43
565.202	342.79
565.255	339.758
565.307	346.522
565.359	354.747
565.411	339.413
565.463	343.138
565.515	343.23
565.567	348.361
565.619	353.739
565.671	349.175
565.723	361.859
565.775	362.473
565.827	365.426
565.879	372.592
565.931	374.733
565.983	372.604
566.035	367.307
566.087	361.126
566.139	370.44
566.192	377.621
566.244	382.336
566.296	385.477
566.348	381.186
566.4	372.885
566.452	380.695
566.504	382.366
566.556	383.69
566.608	391.711
566.66	378.881
566.712	396.162
566.764	390.463
566.816	388.439
566.868	396.921
566.92	391.312
566.972	383.784
567.024	397.401
567.076	400.747
567.128	395.504
567.18	394.91
567.232	401.911
567.285	414.069
567.337	415.123
567.389	417.715
567.441	415.641
567.493	398.663
567.545	403.983
567.597	410.409
567.649	407.378
567.701	408.003
567.753	419.486
567.805	423.4
567.857	422.472
567.909	419.694
567.961	422.784
568.013	420.753
568.065	429.065
568.117	430.008
568.169	428.044
568.221	420.773
568.273	421.275
568.325	423.787
568.377	431.343
568.429	440.262
568.481	431.11
568.533	437.772
568.585	435.583
568.637	433.965
568.69	435.126
568.742	438.902
568.794	444.49
568.846	450.382
568.898	452.11
568.95	448.648
569.002	450.889
569.054	444.987
569.106	447.999
569.158	442.515
569.21	447.551
569.262	461.029
569.314	465.798
569.366	467.598
569.418	470.72
569.47	471.526
569.522	482.821
569.574	464.992
569.626	458.976
569.678	475.112
569.73	478.8
569.782	477.072
569.834	469.007
569.886	482.294
569.938	488.863
569.99	470.438
570.042	479.747
570.094	490.869
570.146	500.652
570.198	524.352
570.25	521.792
570.302	511.605
570.354	512.44
570.406	515.084
570.458	527.928
570.51	532.187
570.562	522.483
570.614	521.407
570.666	527.715
570.718	544.178
570.77	545.806
570.822	533.985
570.874	540.934
570.926	540.279
570.978	549.445
571.03	557.53
571.082	567.065
571.134	570.137
571.186	572.072
571.238	579.082
571.29	581.58
571.342	571.35
571.394	569.931
571.446	590.971
571.498	603.725
571.55	601.343
571.602	620.932
571.654	626.664
571.706	632.593
571.758	635.497
571.81	640.997
571.862	647.123
571.914	654.781
571.966	659.014
572.018	650.886
572.07	657.1
572.122	680.136
572.174	675.789
572.226	695.201
572.278	697.005
572.33	683.298
572.382	684.987
572.434	703.046
572.486	716.128
572.538	725.825
572.59	742.167
572.642	740.517
572.694	754.428
572.746	754.887
572.798	763.57
572.85	795.619
572.902	766.002
572.954	779.879
573.006	789.69
573.058	791.973
573.11	833.2
573.162	841.771
573.214	812.594
573.266	839.741
573.302	857.813
573.355	863.894
573.407	885.948
573.459	882.022
573.511	878.167
573.563	914.039
573.615	920.044
573.667	937.765
573.719	971.532
573.772	965.57
573.824	979
573.876	991.452
573.928	1004.17
573.98	1041.39
574.032	1045.32
574.084	1055.08
574.136	1061.7
574.188	1126.47
574.241	1117.16
574.293	1102.11
574.345	1152.84
574.397	1115.24
574.449	1154.16
574.501	1203.46
574.553	1200.58
574.605	1250.96
574.657	1248.83
574.71	1294.38
574.762	1278.97
574.814	1331.61
574.866	1334.39
574.918	1352.3
574.97	1360.63
575.022	1443.15
575.074	1388.26
575.126	1454.48
575.178	1485.34
575.231	1461.5
575.283	1481.29
575.335	1534.43
575.387	1517.65
575.439	1521.21
575.491	1537.66
575.543	1583.46
575.595	1615.63
575.647	1633.83
575.7	1602.17
575.752	1629.95
575.804	1608.11
575.856	1643.08
575.908	1681.35
575.96	1666.9
576.012	1663.46
576.064	1674.57
576.116	1632.23
576.168	1667.57
576.22	1620.15
576.273	1646.82
576.325	1612.75
576.377	1636.75
576.429	1607.12
576.481	1596.47
576.533	1597.5
576.585	1577.84
576.637	1562.6
576.689	1563.53
576.741	1529.18
576.793	1532.76
576.846	1494.52
576.898	1502.74
576.95	1478
577.002	1456.23
577.054	1420.47
577.106	1404.61
577.158	1385.45
577.21	1366.96
577.262	1400.56
577.314	1338.49
577.366	1342.48
577.418	1312.39
577.471	1325.04
577.523	1300.96
577.575	1285.88
577.627	1269.53
577.679	1244.82
577.731	1239.98
577.783	1235.54
577.835	1218.39
577.887	1186.65
577.939	1200.55
577.991	1173.01
578.043	1191.5
578.095	1180.17
578.148	1166.41
578.2	1126.65
578.252	1108.47
578.304	1113.63
578.356	1126.55
578.408	1115.86
578.46	1113.68
578.512	1112.11
578.564	1085.05
578.616	1091.57
578.668	1098.14
578.72	1053.91
578.772	1045.71
578.824	1068.6
578.877	1071.88
578.929	1062.63
578.981	1048.9
579.033	1055.17
579.085	1020.97
579.137	1066.05
579.189	1045.75
579.241	1058.38
579.293	1033.48
579.345	1062.93
579.397	1041.92
579.449	1043.96
579.501	1030.46
579.553	1043.18
579.605	1025.84
579.658	1037.62
579.71	994.551
579.762	1040.89
579.814	1029.09
579.866	1026.74
579.918	1018.38
579.97	1033.78
580.022	1003.17
580.074	1000.37
580.126	1025.44
580.178	984.341
580.23	996.156
580.282	1001.27
580.334	1018.81
580.386	1022.41
