#Acq. time (s)=	3
#Accumulations=	2
#Range (nm)=	520...900
#Windows=	16
#Auto scanning=	On
#Autofocus=	Off
#AutoExposure=	Off
#Spike filter=	Multiple accum.
#Delay time (s)=	0
#Binning=	1
#Readout mode=	Signal
#DeNoise=	Off
#ICS correction=	Off
#Dark correction=	Off
#Inst. Process=	Off
#Detector temperature (°C)=	-59.98
#Instrument=	LabRAM HR Evol
#Detector=	Syncerity OE
#Objective=	x50_VIS
#Grating=	600 (500nm)
#ND Filter=	10%
#Laser=	514nm_Edge
#Hole=	199.981
#Range=	Auto
#StageXY=	Marzhauser
#StageZ=	Marzhauser
#X (µm)=	1452.2
#Y (µm)=	-1092.6
#Z (µm)=	-216.2
#Full time(mm:ss)=	2:42
#Project=	
#Sample=	
#Site=	
#Title=	PL_Fatia_SCD_021223
#Remark=	
#Date=	18.12.2023 18:01
#Acquired=	18.12.2023 18:01:03
520.042	66
520.094	61.2151
520.147	55
520.199	58.1397
520.251	53.9512
520.304	61.8463
520.356	59.1048
520.408	57
520.461	57.057
520.513	51.1746
520.565	56.8219
520.618	55.0628
520.67	59.8719
520.723	57.8044
520.775	51.3376
520.827	61.7209
520.88	57.1444
520.932	57.0733
520.984	59.773
521.037	57.2305
521.089	64.6047
521.141	59.163
521.194	55.4133
521.246	57.6601
521.298	59.0861
521.351	64.5523
521.403	57.1816
521.455	54.4657
521.508	58.6228
521.56	58
521.612	56.3912
521.665	59.2919
521.717	61.5122
521.769	56.1048
521.822	53.1059
521.874	56.7835
521.926	59.6717
521.979	57.1118
522.031	57.4517
522.083	53.8848
522.136	60.5256
522.188	58.5995
522.24	53.2445
522.293	57.5064
522.345	57.8743
522.397	55.2561
522.45	51.6461
522.502	51.6054
522.554	54.5984
522.607	58.865
522.659	55.2747
522.711	50.2794
522.764	54.1409
522.816	56.7136
522.868	46.5821
522.921	55.8265
522.973	54.298
523.025	55.3027
523.078	53.5425
523.13	58.5355
523.182	62.4715
523.234	54.638
523.287	51
523.339	56.1851
523.391	63.6694
523.444	57.3353
523.496	53.3504
523.548	51.8089
523.601	59.1723
523.653	50.8731
523.705	52.8231
523.758	59.2875
523.81	51.5413
523.862	56.8172
523.915	55.4447
523.967	58
524.019	59.1888
524.072	58.1909
524.124	58.1921
524.176	54.2224
524.229	62.8033
524.281	60.3981
524.333	51.6014
524.385	56.3923
524.438	58.4098
524.49	54.4144
524.542	54.7905
524.595	57.3671
524.647	63
524.699	58.8568
524.752	54.7835
524.804	52.1246
524.856	60.2203
524.909	54.1118
524.961	52.5506
525.013	61.638
525.066	55.6853
525.118	49.6915
525.17	53
525.222	56
525.275	59.7637
525.327	57.716
525.379	55.035
525.432	55.2433
525.484	51
525.536	56.752
525.589	53
525.641	59
525.693	54.7462
525.745	47.7867
525.798	56.4563
525.85	58.4825
525.902	57.7823
525.955	54.2643
526.007	48.0629
526.059	54.3935
526.112	55.5402
526.164	53.4569
526.216	54.8207
526.268	56.8951
526.321	60
526.373	49.5175
526.425	52.3097
526.478	58.5681
526.53	53.993
526.582	58.4435
526.635	53.5804
526.687	53.539
526.739	54.8811
526.791	55.7031
526.844	55.1049
526.896	61.6996
526.948	58.9091
527.001	53.22
527.053	51
527.105	55
527.157	55.5105
527.21	54.4447
527.262	53.7972
527.314	58.3178
527.367	53.6807
527.419	52.6026
527.471	55.7055
527.523	52.6504
527.576	54.3457
527.628	53.6597
527.68	55.0047
527.733	59
527.785	59.3287
527.837	51.7008
527.889	55.958
527.942	59
527.994	56.7567
528.046	54.2692
528.099	57.5553
528.151	56.7016
528.203	58.0594
528.255	55
528.308	56
528.36	57.5641
528.412	57.4435
528.464	56
528.517	60.4464
528.569	58.4685
528.621	60
528.674	49.6026
528.726	54.8776
528.778	56
528.83	55.3788
528.883	53.2401
528.935	59.2354
528.987	67.0792
529.039	66.5478
529.092	55.7786
529.144	57.3904
529.196	58.7855
529.249	51.6054
529.301	53.3974
529.353	54.8007
529.405	59.5991
529.458	59.8065
529.51	50.2189
529.562	55.5524
529.614	59
529.667	55.0629
529.719	57.5175
529.771	63
529.823	57.4191
529.876	56.5245
529.928	55.8846
529.98	57
530.033	60.4277
530.085	56
530.137	58.8625
530.189	57.6993
530.242	60.1282
530.294	58.7483
530.346	56.6799
530.398	56.5431
530.451	53.2191
530.503	49.7902
530.555	56.4103
530.607	61.0979
530.66	58.3601
530.712	54.8228
530.764	54.0839
530.816	60.6981
530.869	56.3077
530.921	53.3193
530.973	54.7366
531.025	57.9371
531.078	55
531.13	53
531.182	58.6224
531.234	57.9114
531.287	59.5198
531.339	52.9301
531.391	53.0979
531.443	63.4562
531.496	57.4615
531.548	51.021
531.6	54.5245
531.652	55.4592
531.705	52.5175
531.757	53.9977
531.809	61.4988
531.861	58.4895
531.914	55.0233
531.966	55.5076
532.018	52.4907
532.07	57.9767
532.123	56.9441
532.175	58.1399
532.227	55.4406
532.279	57
532.332	61.0466
532.384	49.5769
532.436	60.1923
532.488	60.5909
532.541	57.8716
532.593	56.2704
532.645	56.8555
532.697	62
532.75	60.0828
532.802	55.3706
532.854	65.2727
532.906	61.8345
532.958	55.5496
533.011	63
533.063	58.7809
533.115	63.5571
533.167	62.6768
533.22	51
533.272	60.3077
533.324	62.8681
533.376	60.1084
533.429	55.0066
533.481	58.7244
533.533	57.8491
533.585	56.4923
533.638	55.2585
533.69	58.7364
533.742	67.4001
533.794	59.5104
533.846	59.687
533.899	59.6555
533.951	59.3824
534.003	55.0238
534.055	59.2852
534.108	60.3133
534.16	60.52
534.212	56.5463
534.264	67.8879
534.316	66.7404
534.369	57.4034
534.421	63.1671
534.473	57.3319
534.525	62.7304
534.578	62.9916
534.63	58.9061
534.682	58.3339
534.734	62.464
534.786	66.25
534.839	61.9708
534.891	58.9705
534.943	68.5447
534.995	62
535.047	65.565
535.1	58.2719
535.152	65.7381
535.204	67.6199
535.256	66.3404
535.309	61.8325
535.361	66.112
535.413	62.2933
535.465	62.8299
535.517	62.2179
535.57	66.0775
535.622	65.5509
535.674	61.6047
535.726	61.9168
535.778	68.5069
535.831	65.219
535.883	67.6685
535.935	62
535.987	63.1427
536.039	63.998
536.092	65.6942
536.144	61.9211
536.196	70.3573
536.248	63.9603
536.301	66.0288
536.353	71.9611
536.405	69.546
536.457	66.5013
536.509	62.8703
536.562	59.3891
536.614	60.0391
536.666	69.6422
536.718	63.9295
536.77	63.7442
536.823	72.7813
536.875	61.2622
536.927	62.7339
536.979	61.2701
537.031	64.9374
537.083	63.0216
537.136	58.8191
537.188	59.8456
537.24	63.0921
537.292	67.775
537.344	55.5578
537.397	61.754
537.449	73.5705
537.501	67.3831
537.553	63.0724
537.605	62.9728
537.658	68.3221
537.71	70.32
537.762	65.7121
537.814	64.7052
537.866	61.8347
537.919	70.4652
537.971	67.2015
538.023	71.0019
538.075	73.697
538.127	69.5522
538.18	64.3931
538.232	71.1361
538.284	70.7358
538.336	72.091
538.388	64.6706
538.44	63.0073
538.493	72.5029
538.545	72.0712
538.597	64.3342
538.649	68.5138
538.701	68.5486
538.754	69.1756
538.806	63.5033
538.858	65.9782
538.91	70.6446
538.962	64.6341
539.014	62.1905
539.067	69.8552
539.119	76.0379
539.171	70.2202
539.223	65.7516
539.275	67.207
539.327	72.3125
539.38	66.1303
539.432	60.7811
539.484	72.8694
539.536	64.7744
539.588	72.0793
539.641	66.5526
539.693	73.861
539.745	70.6125
539.797	69.2533
539.849	67.4266
539.901	70.5108
539.954	69.4931
540.006	67.3796
540.058	67.7126
540.11	80.9468
540.162	71.5774
540.214	67.5679
540.267	67.5572
540.319	74.0983
540.371	70.0836
540.423	70.1785
540.475	71.7075
540.527	73.8279
540.58	74.0085
540.632	73.544
540.684	74.9041
540.736	74.3187
540.788	76.6673
540.84	74.4226
540.892	65.3985
540.945	75.299
540.997	79.0067
541.049	71.5753
541.101	70.4684
541.153	68.239
541.205	78.4129
541.258	76.5686
541.31	68.3207
541.362	78.9123
541.414	79.7815
541.466	67.9079
541.518	77.0424
541.57	80.0724
541.623	80.1786
541.675	76.9456
541.727	85.4978
541.779	77.6301
541.831	78.8516
541.883	72.4816
541.936	82.9845
541.988	76.0107
542.04	82.6711
542.092	64.0369
542.144	76.9726
542.196	79.0157
542.248	77.2296
542.301	75.0409
542.353	76
542.405	76.7632
542.457	80.299
542.509	75.8422
542.561	86.5197
542.613	78.8506
542.666	73.8378
542.718	74.0417
542.77	81.5014
542.822	83.7024
542.874	81.988
542.926	71.7266
542.978	79.1303
543.031	80.8278
543.083	80.272
543.135	77.381
543.187	79.0324
543.239	86.4069
543.291	81.1232
543.343	75.12
543.396	87.451
543.448	88.2446
543.5	82.8951
543.552	75.6985
543.604	85.4079
543.656	79.6303
543.708	78.6751
543.76	81.6944
543.813	89.3871
543.865	80.2041
543.917	81.9121
543.969	75.8069
544.021	84.6139
544.073	92.0921
544.125	89.718
544.177	83.3969
544.23	84.813
544.282	92.4847
544.334	85.5183
544.386	84.3483
544.438	79.4315
544.49	84.2412
544.542	81.7538
544.594	92.4703
544.647	88.3111
544.699	89.6894
544.751	82.5114
544.803	86.0862
544.855	82.769
544.907	89.0066
544.959	93.3622
545.011	84.3
545.064	94.3722
545.116	89.286
545.168	91.3552
545.22	85.2933
545.272	93.4549
545.324	98.6094
545.376	81.4133
545.428	80.7253
545.48	93.7241
545.533	92.1347
545.585	90.4167
545.637	83.6556
545.689	90.6203
545.741	93.9515
545.793	102.167
545.845	97.2971
545.897	86.0632
545.949	94.0999
546.002	91.1973
546.054	97.0014
546.106	91.2692
546.158	103.387
546.21	104.391
546.262	100.477
546.314	104.895
546.366	101.131
546.418	93.4021
546.471	97.0164
546.523	94.8241
546.575	107.116
546.627	96.9135
546.679	103.741
546.689	105.931
546.741	98.0334
546.793	106.02
546.845	100.031
546.898	97.9416
546.95	98.0423
547.002	105.933
547.054	94.0409
547.106	97.9759
547.159	104.056
547.211	106.166
547.263	92.3997
547.315	105.912
547.368	105.93
547.42	90.4526
547.472	103.824
547.524	126.828
547.577	107.628
547.629	102.037
547.681	113.678
547.733	105.982
547.785	109.898
547.838	115.84
547.89	106.089
547.942	111.616
547.994	118.971
548.047	106.343
548.099	100.632
548.151	113.175
548.203	109.78
548.255	113.466
548.308	113.172
548.36	119.182
548.412	112.259
548.464	106.396
548.517	104.034
548.569	128.309
548.621	112.068
548.673	114.354
548.725	110.43
548.778	117.526
548.83	113.791
548.882	120.802
548.934	116.443
548.987	115.14
549.039	122.983
549.091	110.193
549.143	121.093
549.195	116.183
549.248	124.233
549.3	120.804
549.352	121.414
549.404	122.649
549.456	129.177
549.509	116.115
549.561	121.449
549.613	128.108
549.665	135.249
549.718	119.893
549.77	121.466
549.822	134.518
549.874	123.821
549.926	130.471
549.979	121.924
550.031	131.318
550.083	137.293
550.135	130.354
550.187	143.805
550.24	131.532
550.292	136.978
550.344	130.946
550.396	146.809
550.448	139.846
550.501	137.405
550.553	139.294
550.605	139.194
550.657	140.137
550.709	124.285
550.762	139.91
550.814	147.125
550.866	142.223
550.918	154.131
550.97	137.767
551.023	149.141
551.075	147.957
551.127	145.359
551.179	140.544
551.231	157.509
551.284	157.571
551.336	157.77
551.388	155.844
551.44	154.692
551.492	162.109
551.545	160.424
551.597	161.788
551.649	172.85
551.701	174.89
551.753	178.338
551.806	174.666
551.858	193.262
551.91	184.508
551.962	191.554
552.014	211.091
552.067	207.243
552.119	211.333
552.171	234.051
552.223	264.056
552.275	295.435
552.327	359.1
552.38	481.279
552.432	899.768
552.484	1764.27
552.536	3244.22
552.588	5537.93
552.641	9050.69
552.693	11178.4
552.745	8161.93
552.797	4279.03
552.849	1751.24
552.901	760.484
552.954	474.222
553.006	356.609
553.058	293.229
553.11	263.505
553.162	247.111
553.215	218.167
553.267	218.571
553.319	205.806
553.371	202.993
553.423	189.215
553.475	194.251
553.528	180.491
553.58	191.741
553.632	187.75
553.684	179.782
553.736	192.725
553.788	189.242
553.841	177.972
553.893	179.785
553.945	155.656
553.997	177.52
554.049	192.977
554.102	183.329
554.154	172.745
554.206	173.335
554.258	182.428
554.31	178.576
554.362	180.615
554.414	185.929
554.467	187.459
554.519	181.246
554.571	176.006
554.623	185.558
554.675	184.881
554.727	186.089
554.78	194.391
554.832	194.509
554.884	183.744
554.936	193.146
554.988	182.916
555.04	194.988
555.093	181.36
555.145	178.552
555.197	190.26
555.249	185.574
555.301	184.089
555.353	191.906
555.406	184.56
555.458	184.604
555.51	194.085
555.562	215.452
555.614	187.903
555.666	199.589
555.719	194.507
555.771	195.096
555.823	191.369
555.875	198.496
555.927	191.649
555.979	212.146
556.031	198.036
556.084	205.844
556.136	212.473
556.188	198.695
556.24	205.993
556.292	200.582
556.344	218.187
556.396	211.186
556.449	213.524
556.501	206.936
556.553	212.439
556.605	210.66
556.657	215.277
556.709	206.224
556.762	211.535
556.814	212.345
556.866	213.699
556.918	212.881
556.97	222.624
557.022	221.618
557.074	221.54
557.127	210.792
557.179	229.145
557.231	215.557
557.283	214.91
557.335	225.858
557.387	226.828
557.439	222.922
557.492	214.982
557.544	227.565
557.596	231.866
557.648	230.497
557.7	222.469
557.752	232.463
557.804	231.926
557.856	229.347
557.909	234.543
557.961	227.668
558.013	237.454
558.065	238.012
558.117	236.99
558.169	220.838
558.221	233.067
558.273	243.872
558.326	239.969
558.378	231.34
558.43	241.563
558.482	230.465
558.534	243.035
558.586	246.867
558.638	242.413
558.691	249.814
558.743	238.541
558.795	241.292
558.847	238.058
558.899	240.555
558.951	245.118
559.003	235.313
559.055	261.337
559.108	247.874
559.16	244.659
559.212	240.768
559.264	257.666
559.316	259.971
559.368	265.696
559.42	248.507
559.472	259.106
559.525	254.058
559.577	272.169
559.629	259.575
559.681	260.211
559.733	261.779
559.785	258.19
559.837	258.734
559.889	267.137
559.941	263.871
559.994	256.434
560.046	262.258
560.098	253.917
560.15	268.318
560.202	271.639
560.254	272.793
560.306	266.239
560.358	250.113
560.41	279.931
560.463	261.746
560.515	270.858
560.567	271.997
560.619	263.497
560.671	286.616
560.723	269.472
560.775	277.438
560.827	278.821
560.879	281.742
560.932	283.592
560.984	291.921
561.036	268.625
561.088	296.52
561.14	286.394
561.192	292.609
561.244	294.389
561.296	286.07
561.348	291.295
561.4	296.601
561.453	292.047
561.505	302.55
561.557	292.585
561.609	291.879
561.661	294.929
561.713	306.591
561.765	301.361
561.817	323.224
561.869	308.225
561.921	313.123
561.974	303.673
562.026	311.825
562.078	304.89
562.13	317.73
562.182	308.243
562.234	324.264
562.286	311.473
562.338	317.144
562.39	319.023
562.442	325.972
562.494	307.975
562.547	318.012
562.599	322.848
562.651	324.754
562.703	328.98
562.755	341.505
562.807	328.903
562.859	331.402
562.911	335.018
562.963	335.146
563.015	337.096
563.067	341.392
563.12	333.338
563.172	322.927
563.224	332.259
563.276	340.85
563.328	348.433
563.38	354.263
563.432	355.413
563.484	351.02
563.536	348.101
563.588	352.177
563.64	339.096
563.692	355.452
563.744	344.451
563.797	357.681
563.849	358.905
563.901	356
563.953	356.429
564.005	357.682
564.057	360.819
564.109	364.028
564.161	363.004
564.213	365.139
564.265	361.445
564.317	370.546
564.369	352.648
564.421	360.04
564.474	381.343
564.526	374.769
564.578	368.84
564.63	381.836
564.682	382.665
564.734	373.176
564.786	371.771
564.838	378.117
564.89	393.854
564.942	385.071
564.994	388.073
565.046	396.017
565.098	385.956
565.15	370.303
565.202	380.1
565.255	402.837
565.307	387.879
565.359	395.672
565.411	394.424
565.463	400.921
565.515	391.22
565.567	388.784
565.619	397.879
565.671	398.755
565.723	411.581
565.775	405.009
565.827	406.147
565.879	412.473
565.931	417.793
565.983	418.253
566.035	416.464
566.087	417.772
566.139	410.424
566.192	404.877
566.244	410.775
566.296	423.036
566.348	432.909
566.4	418.641
566.452	427.69
566.504	421.769
566.556	429.429
566.608	440.595
566.66	432.76
566.712	439.057
566.764	446.456
566.816	439.187
566.868	434.351
566.92	431.794
566.972	445.904
567.024	444.337
567.076	445.891
567.128	455.821
567.18	441.376
567.232	448.044
567.285	455.656
567.337	459.299
567.389	455.653
567.441	459.064
567.493	458.353
567.545	455.568
567.597	466.678
567.649	466.911
567.701	472.477
567.753	464.856
567.805	465.159
567.857	471.318
567.909	469.125
567.961	478.103
568.013	490.859
568.065	484.462
568.117	485.741
568.169	490.897
568.221	500.472
568.273	500.613
568.325	493.905
568.377	485.649
568.429	487.107
568.481	499.726
568.533	501.485
568.585	496.171
568.637	509.119
568.69	508.107
568.742	503.064
568.794	502.496
568.846	504.189
568.898	499.384
568.95	502.673
569.002	502.113
569.054	515.099
569.106	516.134
569.158	516.654
569.21	524.891
569.262	524.86
569.314	510.215
569.366	516.943
569.418	531.627
569.47	529.334
569.522	523.677
569.574	523.4
569.626	533.147
569.678	540.151
569.73	550.159
569.782	546.673
569.834	549.662
569.886	564.622
569.938	565.307
569.99	556.734
570.042	568.179
570.094	561.162
570.146	562.489
570.198	571.399
570.25	554.848
570.302	567.326
570.354	573.867
570.406	575.813
570.458	586.74
570.51	601.194
570.562	602.08
570.614	589.229
570.666	600.942
570.718	614.315
570.77	625.332
570.822	616.655
570.874	620.418
570.926	637.855
570.978	632.569
571.03	652.112
571.082	638.657
571.134	634.022
571.186	649.04
571.238	650.8
571.29	652.924
571.342	665.578
571.394	689.278
571.446	685.992
571.498	685.886
571.55	710.269
571.602	712.179
571.654	702.159
571.706	712.048
571.758	718.075
571.81	717.918
571.862	731.043
571.914	743.382
571.966	753.29
572.018	753.831
572.07	762.393
572.122	773.008
572.174	774.091
572.226	777.182
572.278	775.963
572.33	804.176
572.382	808.359
572.434	805.836
572.486	812.871
572.538	840.57
572.59	849.782
572.642	840.426
572.694	845.053
572.746	862.996
572.798	886.354
572.85	899.423
572.902	908.831
572.954	927.669
573.006	918.038
573.058	905.514
573.11	930.394
573.162	933.671
573.214	992.206
573.266	1001.04
573.302	966.123
573.355	1035.74
573.407	1015.67
573.459	1047.47
573.511	1017.95
573.563	1061.56
573.615	1073.97
573.667	1084.11
573.719	1121.38
573.772	1125.3
573.824	1113.61
573.876	1172.87
573.928	1184.64
573.98	1181.06
574.032	1180.9
574.084	1220.1
574.136	1245.2
574.188	1245.91
574.241	1246.64
574.293	1333.26
574.345	1309.49
574.397	1338.86
574.449	1393.73
574.501	1412.45
574.553	1409.15
574.605	1444.2
574.657	1469.18
574.71	1487.25
574.762	1499.11
574.814	1530.56
574.866	1544.26
574.918	1597.7
574.97	1610.91
575.022	1651.53
575.074	1699.01
575.126	1727.16
575.178	1736.09
575.231	1728.08
575.283	1803.28
575.335	1772.18
575.387	1764.43
575.439	1842.67
575.491	1847.14
575.543	1861.68
575.595	1871.46
575.647	1896.85
575.7	1920.26
575.752	1887.84
575.804	1931.75
575.856	1947.08
575.908	1951.28
575.96	1886.5
576.012	1911.59
576.064	1936.11
576.116	1937.01
576.168	1923.98
576.22	1952.13
576.273	1942.83
576.325	1941.32
576.377	1920.18
576.429	1919.7
576.481	1889.44
576.533	1885.65
576.585	1855.84
576.637	1856.15
576.689	1821.32
576.741	1822.63
576.793	1824.52
576.846	1775.98
576.898	1729.47
576.95	1698.53
577.002	1677.34
577.054	1678.11
577.106	1667.36
577.158	1666.21
577.21	1654.76
577.262	1632.52
577.314	1613.76
577.366	1588.14
577.418	1559.22
577.471	1528.87
577.523	1525.33
577.575	1493.67
577.627	1475.54
577.679	1491.26
577.731	1457
577.783	1451.95
577.835	1434.71
577.887	1430.2
577.939	1422.36
577.991	1408.82
578.043	1404.28
578.095	1382.8
578.148	1372.03
578.2	1330.65
578.252	1351.51
578.304	1348.94
578.356	1354.34
578.408	1293.93
578.46	1295.17
578.512	1304.6
578.564	1253.1
578.616	1288.89
578.668	1251.84
578.72	1294.86
578.772	1243.52
578.824	1241.74
578.877	1276.12
578.929	1265.38
578.981	1240.99
579.033	1240.86
579.085	1215.96
579.137	1245.88
579.189	1211.49
579.241	1202.15
579.293	1239.6
579.345	1202
579.397	1168.42
579.449	1221.62
579.501	1190.29
579.553	1206.21
579.605	1195.69
579.658	1188.63
579.71	1205.36
579.762	1175.66
579.814	1205.98
579.866	1198.84
579.918	1186.88
579.97	1165.21
580.022	1176.17
580.074	1170.83
580.126	1197.73
580.178	1189.21
580.23	1195.67
580.282	1177.08
580.334	1192.14
580.386	1184.16
