#Acq. time (s)=	5
#Accumulations=	2
#Range (nm)=	520...900
#Windows=	8
#Auto scanning=	Off
#Autofocus=	Off
#AutoExposure=	Off
#Spike filter=	Multiple accum.
#Delay time (s)=	0
#Binning=	1
#Readout mode=	Signal
#DeNoise=	Off
#ICS correction=	On
#Dark correction=	Off
#Inst. Process=	Off
#Detector temperature (°C)=	-59.98
#Instrument=	LabRAM HR Evol
#Detector=	Syncerity OE
#Objective=	x50_VIS
#Grating=	600 (500nm)
#ND Filter=	10%
#Laser=	514nm_Edge
#Hole=	199.981
#Range=	Auto
#StageXY=	Marzhauser
#StageZ=	Marzhauser
#X (µm)=	18192.9
#Y (µm)=	3611.8
#Z (µm)=	-57.4
#Full time(mm:ss)=	2:05
#Project=	
#Sample=	
#Site=	
#Title=	PL_M2_011123
#Remark=	
#Date=	11.11.2023 11:41
#Acquired=	11.11.2023 11:41:37
520.044	91.8875
520.097	95.2801
520.149	87.8984
520.201	82.3458
520.254	82.1861
520.306	96.3106
520.359	89.0433
520.411	81.8245
520.464	85.3159
520.516	94.1697
520.569	83.514
520.621	90.6606
520.674	85.3901
520.726	83.6906
520.778	98.0408
520.831	83.8718
520.883	94.6737
520.936	87.5959
520.988	96.586
521.041	93.0355
521.093	93.0439
521.146	93.0396
521.198	100.184
521.25	94.7989
521.303	105.502
521.355	89.3705
521.408	94.6726
521.46	94.5895
521.513	98.0523
521.565	92.5924
521.617	94.2605
521.67	85.2774
521.722	92.3047
521.775	90.4712
521.827	85.109
521.88	85.0784
521.932	93.9153
521.984	93.9003
522.037	97.4455
522.089	85.067
522.142	85.117
522.194	88.7418
522.247	101.276
522.299	88.9433
522.352	94.3869
522.404	94.482
522.456	105.268
522.509	94.6323
522.561	94.6953
522.614	89.3919
522.666	91.2349
522.719	94.8638
522.771	93.112
522.823	94.9227
522.876	100.291
522.928	89.5126
522.981	89.4475
523.033	94.7082
523.086	94.5658
523.138	89.0505
523.19	94.205
523.243	95.7922
523.295	95.6232
523.348	93.7204
523.4	93.6254
523.453	97.0897
523.505	95.2703
523.557	91.6864
523.61	89.8563
523.662	91.5387
523.715	102.013
523.767	105.462
523.82	86.1053
523.872	110.733
523.924	100.258
523.977	91.5619
524.029	98.7316
524.082	98.8638
524.134	95.4565
524.186	104.422
524.239	102.772
524.291	102.89
524.344	110.113
524.396	94.238
524.449	101.466
524.501	98.0101
524.553	103.455
524.606	99.9673
524.658	101.813
524.711	107.211
524.763	109.007
524.815	96.4785
524.868	101.788
524.92	105.281
524.973	101.619
525.025	97.957
525.078	94.3059
525.13	119.121
525.182	103.057
525.235	103.017
525.287	99.4461
525.34	117.2
525.392	106.551
525.444	110.108
525.497	99.4526
525.549	102.996
525.602	97.6554
525.654	97.6421
525.706	95.8633
525.759	99.4315
525.811	104.809
525.864	103.12
525.916	97.9028
525.969	94.4807
526.021	96.4189
526.073	100.155
526.126	100.314
526.178	100.46
526.231	100.595
526.283	111.51
526.335	100.838
526.388	99.1474
526.44	113.685
526.493	108.367
526.545	101.214
526.597	108.5
526.65	104.915
526.702	94.0716
526.755	94.0626
526.807	104.886
526.859	97.6077
526.912	112.001
526.964	104.704
527.017	113.652
527.069	102.765
527.121	108.121
527.174	106.283
527.226	102.657
527.279	113.445
527.331	104.424
527.383	98.9993
527.436	109.763
527.488	102.523
527.54	120.454
527.593	97.0365
527.645	102.383
527.698	105.937
527.75	105.91
527.802	113.076
527.855	102.311
527.907	109.516
527.96	104.177
528.012	100.649
528.064	102.528
528.117	95.4179
528.169	108.124
528.222	124.468
528.274	108.352
528.326	99.4435
528.379	119.495
528.431	108.794
528.484	105.331
528.536	116.404
528.588	120.207
528.641	109.407
528.693	107.687
528.745	118.734
528.798	111.507
528.85	122.56
528.903	107.999
528.955	111.724
529.007	109.935
529.06	109.944
529.112	102.586
529.164	113.511
529.217	107.933
529.269	107.839
529.322	105.922
529.374	109.488
529.426	113.051
529.479	120.244
529.531	101.924
529.584	116.351
529.636	99.8659
529.688	116.069
529.741	105.081
529.793	105.002
529.845	113.998
529.898	117.583
529.95	112.133
530.003	115.725
530.055	106.654
530.107	101.197
530.16	99.356
530.212	102.942
530.264	106.544
530.317	113.78
530.369	119.241
530.422	110.273
530.474	108.553
530.526	121.337
530.579	110.597
530.631	110.736
530.683	114.525
530.736	109.237
530.788	111.239
530.841	120.564
530.893	113.453
530.945	124.636
530.998	115.635
531.05	121.277
531.102	121.376
531.155	126.966
531.207	104.935
531.259	121.565
531.312	117.959
531.364	127.282
531.417	112.636
531.469	120.146
531.521	114.712
531.574	112.952
531.626	113.018
531.678	135.306
531.731	116.808
531.783	124.263
531.835	118.747
531.888	122.523
531.94	115.171
531.992	120.827
532.045	104.166
532.097	119.113
532.15	124.748
532.202	126.648
532.254	111.778
532.307	117.404
532.359	115.593
532.411	124.997
532.464	117.633
532.516	134.57
532.568	121.611
532.621	127.345
532.673	112.451
532.726	125.637
532.778	131.298
532.83	120.05
532.883	112.536
532.935	127.521
532.987	127.502
533.04	133.115
533.092	119.984
533.144	118.103
533.197	112.468
533.249	129.318
533.301	118.05
533.354	118.029
533.406	125.511
533.458	121.765
533.511	123.649
533.563	118.038
533.615	125.527
533.668	131.116
533.72	129.182
533.773	127.226
533.825	123.395
533.877	130.783
533.93	130.707
533.982	132.507
534.034	119.382
534.087	139.809
534.139	126.647
534.191	135.804
534.244	118.905
534.296	131.737
534.348	118.613
534.401	129.626
534.453	142.525
534.505	127.704
534.558	136.975
534.61	135.157
534.662	131.488
534.715	133.371
534.767	135.255
534.819	131.589
534.872	140.917
534.924	126.162
534.976	129.976
535.029	124.518
535.081	126.49
535.133	156.373
535.186	126.659
535.238	136.015
535.29	143.484
535.343	136.032
535.395	147.22
535.447	126.744
535.5	134.251
535.552	147.387
535.604	145.622
535.657	143.858
535.709	143.958
535.761	132.827
535.814	147.891
535.866	140.505
535.918	142.499
535.971	138.88
536.023	146.525
536.075	137.239
536.128	142.943
536.18	150.463
536.232	142.866
536.285	133.345
536.337	131.32
536.389	134.927
536.442	146.051
536.494	136.626
536.546	149.712
536.599	149.73
536.651	138.52
536.703	136.641
536.755	144.071
536.808	145.827
536.86	149.398
536.912	145.473
536.965	145.29
537.017	143.276
537.069	128.276
537.122	122.595
537.174	133.617
537.226	131.621
537.279	146.276
537.331	127.597
537.383	145.91
537.436	143.91
537.488	147.48
537.54	145.557
537.593	136.298
537.645	138.106
537.697	147.27
537.75	143.527
537.802	141.6
537.854	139.654
537.906	156.062
537.959	130.255
538.011	146.674
538.063	139.287
538.116	148.436
538.168	137.463
538.22	132.014
538.273	148.589
538.325	146.831
538.377	148.736
538.43	146.953
538.482	150.663
538.534	148.847
538.586	145.185
538.639	156.227
538.691	141.544
538.743	152.61
538.796	147.14
538.848	136.155
538.9	147.25
538.953	149.136
539.005	151.004
539.057	145.481
539.109	152.82
539.162	161.97
539.214	143.5
539.266	148.947
539.319	154.393
539.371	146.985
539.423	154.292
539.476	152.427
539.528	152.408
539.58	145.049
539.633	150.542
539.685	159.7
539.737	141.318
539.789	146.79
539.842	152.251
539.894	143.032
539.946	155.812
539.999	157.585
540.051	155.693
540.103	139.158
540.155	155.587
540.208	140.906
540.26	157.349
540.312	157.343
540.365	155.538
540.417	151.934
540.469	163.011
540.521	146.632
540.574	168.756
540.626	152.349
540.678	156.094
540.731	156.13
540.783	157.971
540.835	163.472
540.888	157.96
540.94	150.637
540.992	172.745
541.044	159.969
541.097	160.071
541.149	160.171
541.201	165.786
541.254	158.49
541.306	173.302
541.358	162.297
541.41	162.35
541.463	167.93
541.515	167.959
541.567	167.969
541.62	162.426
541.672	155.036
541.724	167.963
541.776	162.461
541.829	166.224
541.881	166.321
541.933	168.271
541.985	159.104
542.038	168.396
542.09	164.683
542.142	179.414
542.195	171.899
542.247	171.748
542.299	180.806
542.351	169.57
542.404	184.144
542.456	165.589
542.508	174.657
542.56	176.383
542.613	159.762
542.665	174.378
542.717	170.645
542.77	177.928
542.822	174.203
542.874	172.307
542.926	177.732
542.979	175.815
543.031	157.418
543.083	179.287
543.135	177.371
543.188	184.616
543.24	188.235
543.292	166.312
543.344	190.127
543.397	170.108
543.449	181.209
543.501	177.679
543.554	185.125
543.606	177.867
543.658	166.885
543.71	187.027
543.763	194.289
543.815	181.38
543.867	175.819
543.919	177.617
543.972	190.439
544.024	175.827
544.076	181.382
544.128	181.45
544.181	177.851
544.233	190.753
544.285	196.324
544.337	179.875
544.39	194.629
544.442	180.004
544.494	185.571
544.547	191.13
544.599	193
544.651	183.831
544.703	189.36
544.755	185.694
544.808	183.861
544.86	191.212
544.912	187.517
544.965	185.646
545.017	192.954
545.069	187.399
545.121	196.551
545.174	194.694
545.226	187.333
545.278	181.795
545.33	189.073
545.383	192.621
545.435	199.774
545.487	184.908
545.539	195.676
545.591	191.841
545.644	195.374
545.696	177.061
545.748	191.646
545.8	189.808
545.853	204.365
545.905	195.148
545.957	193.179
546.009	191.179
546.062	209.184
546.114	196.278
546.166	207.032
546.218	206.91
546.271	217.691
546.323	194.012
546.375	199.347
546.427	191.994
546.48	206.38
546.532	204.488
546.584	204.441
546.636	217.094
546.689	217.12
546.741	204.504
546.793	204.57
546.845	206.455
546.898	204.721
546.95	217.483
547.002	201.238
547.054	194.034
547.106	206.754
547.159	204.937
547.211	217.601
547.263	203.046
547.315	221.118
547.368	226.509
547.42	211.994
547.472	215.63
547.524	217.487
547.577	221.183
547.629	223.079
547.681	224.97
547.733	221.395
547.785	234.129
547.838	230.51
547.89	214.176
547.942	234.145
547.994	226.902
548.047	230.567
548.099	212.457
548.151	228.852
548.203	228.892
548.255	239.807
548.308	239.787
548.36	232.465
548.412	226.935
548.464	244.984
548.517	228.55
548.569	215.765
548.621	237.445
548.673	230.146
548.725	233.75
548.778	230.131
548.83	224.718
548.882	242.867
548.934	242.875
548.987	228.343
549.039	224.63
549.091	246.202
549.143	224.273
549.195	231.265
549.248	258.101
549.3	232.631
549.352	243.301
549.404	243.211
549.456	257.568
549.509	230.501
549.561	239.42
549.613	237.483
549.665	231.904
549.718	237.088
549.77	233.302
549.822	236.736
549.874	236.64
549.926	245.558
549.979	236.58
550.031	220.432
550.083	238.3
550.135	245.359
550.187	238.034
550.24	250.344
550.292	241.17
550.344	244.512
550.396	238.967
550.448	240.62
550.501	254.82
550.553	245.926
550.605	244.211
550.657	235.377
550.709	263.969
550.762	239
550.814	249.633
550.866	244.162
550.918	276.074
550.97	252.773
551.023	257.995
551.075	266.806
551.127	277.41
551.179	263.11
551.231	282.554
551.284	252.213
551.336	276.918
551.388	289.194
551.44	283.777
551.492	280.205
551.545	294.433
551.597	298.057
551.649	301.677
551.701	283.962
551.753	292.814
551.806	314.04
551.858	319.273
551.91	322.746
551.962	333.349
552.014	331.586
552.067	360.005
552.119	384.898
552.171	402.698
552.223	459.528
552.275	544.776
552.327	734.823
552.38	1120.4
552.432	1920.37
552.484	3227.91
552.536	5361.89
552.588	8452.08
552.641	12115.9
552.693	13573.4
552.745	11337.4
552.797	7451.58
552.849	4009.23
552.901	1911.23
552.954	1002.25
553.006	634.934
553.058	507.222
553.11	448.735
553.162	390.275
553.215	374.419
553.267	365.701
553.319	349.909
553.371	341.231
553.423	320.089
553.475	329.13
553.528	311.412
553.58	293.603
553.632	311.293
553.684	304.009
553.736	310.921
553.788	289.434
553.841	285.775
553.893	307.045
553.945	294.67
553.997	287.67
554.049	293.117
554.102	303.882
554.154	302.171
554.206	298.636
554.258	298.624
554.31	284.374
554.362	279.005
554.414	305.612
554.467	278.899
554.519	310.784
554.571	312.444
554.623	301.67
554.675	310.426
554.727	299.694
554.78	301.405
554.832	299.586
554.884	287.124
554.936	295.901
554.988	301.085
555.04	284.984
555.093	291.88
555.145	284.628
555.197	310.974
555.249	293.161
555.301	296.551
555.353	299.915
555.406	304.997
555.458	301.212
555.51	292.111
555.562	295.312
555.614	307.292
555.666	305.247
555.719	283.98
555.771	308.355
555.823	301.25
555.875	313.466
555.927	295.942
555.979	302.933
556.031	302.889
556.084	308.043
556.136	283.395
556.188	298.947
556.24	314.473
556.292	312.554
556.344	289.76
556.396	293.233
556.449	312.484
556.501	312.573
556.553	295.191
556.605	316.2
556.657	326.675
556.709	317.883
556.762	309.065
556.814	324.684
556.866	317.624
556.918	312.344
556.97	319.316
557.022	331.567
557.074	300.231
557.127	331.779
557.179	307.488
557.231	314.664
557.283	328.857
557.335	325.562
557.387	323.999
557.439	324.168
557.492	334.841
557.544	338.503
557.596	321.117
557.648	317.773
557.7	319.712
557.752	337.489
557.804	323.637
557.856	325.609
557.909	325.815
557.961	320.726
558.013	326.204
558.065	336.983
558.117	323.07
558.169	317.984
558.221	323.495
558.273	339.593
558.326	346.788
558.378	339.724
558.43	325.472
558.482	346.507
558.534	342.749
558.586	337.273
558.638	323.073
558.691	328.405
558.743	337.357
558.795	335.744
558.847	314.652
558.899	344.744
558.951	330.539
559.003	332.156
559.055	337.241
559.108	365.22
559.16	349.056
559.212	338.177
559.264	357.192
559.316	340.971
559.368	347.579
559.42	345.407
559.472	338.031
559.525	348.245
559.577	353.285
559.629	337.407
559.681	328.548
559.733	356.339
559.785	347.355
559.837	357.465
559.889	344.825
559.941	349.568
559.994	350.832
560.046	346.934
560.098	346.569
560.15	341.051
560.202	345.923
560.254	373.203
560.306	355.477
560.358	337.721
560.41	354.376
560.463	341.774
560.515	334.395
560.567	340.802
560.619	366.075
560.671	367.414
560.723	355.098
560.775	366.658
560.827	369.642
560.879	360.698
560.932	358.601
560.984	370.158
561.036	351.242
561.088	369.736
561.14	367.91
561.192	383.024
561.244	370.975
561.296	385.97
561.348	377.233
561.4	371.912
561.453	375.119
561.505	371.675
561.557	385.235
561.609	381.974
561.661	378.732
561.713	382.223
561.765	378.894
561.817	372.129
561.869	392.405
561.921	383.941
561.974	375.514
562.026	373.891
562.078	382.435
562.13	394.353
562.182	394.386
562.234	365.605
562.286	382.511
562.338	396.055
562.39	385.962
562.442	392.873
562.494	408.326
562.547	391.624
562.599	368.115
562.651	405.654
562.703	392.249
562.755	392.389
562.807	389.116
562.859	399.442
562.911	402.989
562.963	381.038
563.015	410.133
563.067	377.963
563.12	410.478
563.172	405.513
563.224	402.221
563.276	404.007
563.328	419.391
563.38	422.802
563.432	427.881
563.484	410.778
563.536	436.277
563.588	431.096
563.64	436.134
563.692	408.789
563.744	429.097
563.797	411.881
563.849	442.266
563.901	402.897
563.953	438.355
564.005	443.275
564.057	443.182
564.109	422.789
564.161	431.297
564.213	441.485
564.265	421.04
564.317	437.844
564.369	446.046
564.421	455.848
564.474	408.021
564.526	434.69
564.578	439.334
564.63	457.457
564.682	470.446
564.734	458.089
564.786	428.895
564.838	441.751
564.89	442.856
564.942	425.593
564.994	457
565.046	438.259
565.098	439.653
565.15	426.003
565.202	440.695
565.255	435.26
565.307	443.07
565.359	432.492
565.411	431.88
565.463	414.694
565.515	447.292
565.567	428.574
565.619	443.018
565.671	417.853
565.723	435.681
565.775	440.322
565.827	430.141
565.879	443.029
565.931	462.46
565.983	444.003
566.035	445.256
566.087	451.404
566.139	454.257
566.192	444.014
566.244	446.92
566.296	459.674
566.348	469.164
566.4	457.407
566.452	426.059
566.504	459.977
566.556	441.663
566.608	451.058
566.66	442.561
566.712	450.382
566.764	464.756
566.816	458.073
566.868	453.09
566.92	467.66
566.972	462.801
567.024	457.988
567.076	412.595
567.128	454.933
567.18	450.155
567.232	461.608
567.285	476.288
567.337	450.312
567.389	461.731
567.441	476.435
567.493	455.411
567.545	465.334
567.597	476.92
567.649	454.319
567.701	447.966
567.753	480.683
567.805	482.43
567.857	471.14
567.909	492.489
567.961	466.585
568.013	460.276
568.065	460.497
568.117	475.256
568.169	492.793
568.221	488.134
568.273	474.158
568.325	466.972
568.377	460.485
568.429	503.107
568.481	477.243
568.533	499.69
568.585	505.52
568.637	488.68
568.69	490.957
568.742	482.924
568.794	497.214
568.846	490.289
568.898	495.905
568.95	498.438
569.002	487.118
569.054	505.596
569.106	487.948
569.158	506.547
569.21	492.062
569.262	513.706
569.314	506.084
569.366	516.6
569.418	514.937
569.47	503.481
569.522	511.69
569.574	505.713
569.626	525.997
569.678	531.457
569.73	511.583
569.782	528.265
569.834	540.643
569.886	530.272
569.938	521.837
569.99	530.204
570.042	531.637
570.094	529.638
570.146	530.252
570.198	533.713
570.25	539.74
570.302	530.022
570.354	537.399
570.406	539.868
570.458	539.299
570.51	545.917
570.562	543.633
570.614	547.605
570.666	560.411
570.718	560.976
570.77	566.106
570.822	554.083
570.874	556.337
570.926	555.478
570.978	560.914
571.03	573.152
571.082	576.068
571.134	593.157
571.186	592.237
571.238	572.919
571.29	574.605
571.342	593.913
571.394	599.297
571.446	592.486
571.498	605.841
571.55	597.455
571.602	590
571.654	612.34
571.706	597.921
571.758	603.752
571.81	614.62
571.862	617.606
571.914	633.816
571.966	630.374
572.018	640.795
572.07	638.402
572.122	635.581
572.174	634.608
572.226	640.212
572.278	648.698
572.33	659.604
572.382	661.139
572.434	672.589
572.486	674.016
572.538	684.521
572.59	688.138
572.642	695.597
572.694	698.845
572.746	677.933
572.798	687.678
572.85	703.081
572.902	702.203
572.954	697.534
573.006	683.051
573.058	712.078
573.11	742.726
573.162	727.724
573.214	726.069
573.266	708.375
573.312	718.958
573.364	734.405
573.416	742.147
573.469	745.274
573.521	736.049
573.573	756.208
573.625	768.611
573.677	787.131
573.73	786.984
573.782	783.628
573.834	769.382
573.886	790.67
573.938	791.987
573.991	770.355
574.043	801.468
574.095	801.922
574.147	825.673
574.199	818.45
574.252	814.092
574.304	821.779
574.356	815.188
574.408	814.509
574.46	841.509
574.513	843.858
574.565	815.528
574.617	847.451
574.669	834.746
574.721	857.468
574.774	849.356
574.826	841.204
574.878	840.715
574.93	854.053
574.982	868.94
575.035	853.156
575.087	858.877
575.139	841.597
575.191	851.907
575.243	859.146
575.296	880.179
575.348	870.627
575.4	877.928
575.452	862.272
575.504	864.904
575.556	864.391
575.609	877.55
575.661	870.867
575.713	884.097
575.765	854.809
575.817	891.21
575.87	869.829
575.922	883.492
575.974	866.593
576.026	892.169
576.078	853.648
576.131	863.736
576.183	879.885
576.235	891.537
576.287	880.533
576.339	868.143
576.391	871.021
576.444	864.829
576.496	888.968
576.548	873.62
576.6	855.188
576.652	860.958
576.705	881.817
576.757	858.692
576.809	862.805
576.861	863.881
576.913	854.387
576.965	878.191
577.018	871.808
577.07	885.119
577.122	841.091
577.174	848.456
577.226	857.362
577.279	836.108
577.331	860.153
577.383	843.468
577.435	837.351
577.487	831.223
577.539	841.655
577.592	827.902
577.644	853.293
577.696	828.874
577.748	836.07
577.8	858.306
577.852	838.396
577.905	826.061
577.957	831.822
578.009	827.077
578.061	823.838
578.113	828.095
578.165	824.809
578.218	821.5
578.27	807.674
578.322	831.374
578.374	819.052
578.426	805.222
578.478	818.342
578.531	807.415
578.583	812.889
578.635	800.328
578.687	820.611
578.739	816.928
578.791	816.22
578.844	785.697
578.896	814.816
578.948	827.514
579	811.93
579.052	788.929
579.104	782.268
579.157	791.891
579.209	788.103
579.261	803.494
579.313	778.877
579.365	773.458
579.417	770.982
579.47	790.619
579.522	777.928
579.574	797.694
579.626	773.524
579.678	805.255
579.73	784.272
579.782	795.589
579.835	790.761
579.887	800.501
579.939	775.032
579.991	784.582
580.043	775.082
580.095	781.636
