#Acq. time (s)=	3
#Accumulations=	2
#Range (nm)=	520...900
#Windows=	8
#Auto scanning=	Off
#Autofocus=	Off
#AutoExposure=	Off
#Spike filter=	Off
#Delay time (s)=	0
#Binning=	1
#Readout mode=	Signal
#DeNoise=	Off
#ICS correction=	Off
#Dark correction=	Off
#Inst. Process=	Off
#Detector temperature (°C)=	-59.98
#Instrument=	LabRAM HR Evol
#Detector=	Syncerity OE
#Objective=	x50_VIS
#Grating=	600 (500nm)
#ND Filter=	25%
#Laser=	514nm_Edge
#Hole=	199.981
#Range=	Visible
#StageXY=	Marzhauser
#StageZ=	Marzhauser
#X (µm)=	-0.3
#Y (µm)=	-9993.1
#Z (µm)=	-259.4
#Full time(mm:ss)=	1:32
#Project=	
#Sample=	
#Site=	
#Title=	PL_M3_280424
#Remark=	
#Date=	06.05.2024 16:32
#Acquired=	06.05.2024 16:32:18
520.044	87
520.097	78
520.149	85
520.201	89
520.254	87
520.306	72
520.359	85
520.411	94
520.464	89
520.516	82
520.569	93
520.621	85
520.674	72
520.726	70
520.778	82
520.831	94
520.883	86
520.936	73
520.988	87
521.041	86
521.093	85
521.146	82
521.198	84
521.25	83
521.303	87
521.355	86
521.408	85
521.46	90
521.513	99
521.565	74
521.617	81
521.67	91
521.722	91
521.775	86
521.827	84
521.88	78
521.932	80
521.984	81
522.037	76
522.089	79
522.142	91
522.194	86
522.247	90
522.299	88
522.352	88
522.404	81
522.456	78
522.509	81
522.561	88
522.614	80
522.666	86
522.719	84
522.771	92
522.823	84
522.876	81
522.928	83
522.981	82
523.033	73
523.086	83
523.138	90
523.19	85
523.243	82
523.295	91
523.348	80
523.4	82
523.453	75
523.505	76
523.557	85
523.61	75
523.662	83
523.715	78
523.767	82
523.82	81
523.872	89
523.924	75
523.977	86
524.029	85
524.082	76
524.134	80
524.186	79
524.239	79
524.291	73
524.344	71
524.396	92
524.449	82
524.501	80
524.553	69
524.606	81
524.658	84
524.711	79
524.763	72
524.815	82
524.868	85
524.92	86
524.973	85
525.025	75
525.078	76
525.13	77
525.182	74
525.235	80
525.287	69
525.34	87
525.392	66
525.444	86
525.497	87
525.549	90
525.602	74
525.654	84
525.706	83
525.759	76
525.811	71
525.864	81
525.916	79
525.969	79
526.021	64
526.073	83
526.126	85
526.178	72
526.231	72
526.283	87
526.335	77
526.388	79
526.44	71
526.493	82
526.545	69
526.597	73
526.65	66
526.702	75
526.755	80
526.807	80
526.859	73
526.912	84
526.964	75
527.017	74
527.069	68
527.121	71
527.174	82
527.226	73
527.279	66
527.331	77
527.383	81
527.436	72
527.488	69
527.54	73
527.593	67
527.645	65
527.698	68
527.75	69
527.802	72
527.855	75
527.907	66
527.96	83
528.012	67
528.064	77
528.117	77
528.169	83
528.222	76
528.274	79
528.326	64
528.379	77
528.431	78
528.484	81
528.536	71
528.588	79
528.641	75
528.693	75
528.745	67
528.798	89
528.85	74
528.903	80
528.955	69
529.007	77
529.06	75
529.112	78
529.164	71
529.217	73
529.269	70
529.322	75
529.374	72
529.426	75
529.479	87
529.531	74
529.584	72
529.636	76
529.688	74
529.741	82
529.793	66
529.845	77
529.898	70
529.95	74
530.003	77
530.055	74
530.107	78
530.16	69
530.212	67
530.264	78
530.317	82
530.369	77
530.422	73
530.474	76
530.526	71
530.579	80
530.631	73
530.683	89
530.736	74
530.788	75
530.841	71
530.893	82
530.945	80
530.998	74
531.05	75
531.102	80
531.155	82
531.207	73
531.259	70
531.312	83
531.364	78
531.417	76
531.469	75
531.521	83
531.574	86
531.626	81
531.678	70
531.731	68
531.783	78
531.835	82
531.888	75
531.94	76
531.992	83
532.045	89
532.097	74
532.15	80
532.202	85
532.254	89
532.307	82
532.359	77
532.411	82
532.464	94
532.516	75
532.568	83
532.621	84
532.673	92
532.726	81
532.778	80
532.83	85
532.883	94
532.935	85
532.987	83
533.04	87
533.092	89
533.144	76
533.197	89
533.249	85
533.301	92
533.354	86
533.406	88
533.458	86
533.511	85
533.563	82
533.615	89
533.668	100
533.72	103
533.773	98
533.825	102
533.877	103
533.93	96
533.982	96
534.034	101
534.087	114
534.139	96
534.191	107
534.244	101
534.296	117
534.348	109
534.401	121
534.453	115
534.505	125
534.558	128
534.61	123
534.662	135
534.715	128
534.767	132
534.819	140
534.872	137
534.924	145
534.976	152
535.029	158
535.081	154
535.133	167
535.186	154
535.238	149
535.29	160
535.343	168
535.395	158
535.447	160
535.5	162
535.552	163
535.604	151
535.657	155
535.709	156
535.761	140
535.814	149
535.866	147
535.918	123
535.971	134
536.023	136
536.075	136
536.128	118
536.18	123
536.232	129
536.285	105
536.337	107
536.389	124
536.442	108
536.494	119
536.546	108
536.599	117
536.651	111
536.703	100
536.755	110
536.808	106
536.86	116
536.912	112
536.965	99
537.017	111
537.069	114
537.122	104
537.174	96
537.226	109
537.279	110
537.331	103
537.383	109
537.436	113
537.488	99
537.54	116
537.593	102
537.645	109
537.697	102
537.75	108
537.802	101
537.854	108
537.906	108
537.959	109
538.011	110
538.063	115
538.116	97
538.168	115
538.22	105
538.273	105
538.325	110
538.377	108
538.43	106
538.482	109
538.534	110
538.586	108
538.639	101
538.691	110
538.743	105
538.796	109
538.848	101
538.9	111
538.953	114
539.005	102
539.057	106
539.109	110
539.162	113
539.214	111
539.266	106
539.319	107
539.371	103
539.423	113
539.476	107
539.528	111
539.58	114
539.633	104
539.685	102
539.737	110
539.789	116
539.842	110
539.894	105
539.946	112
539.999	122
540.051	122
540.103	100
540.155	113
540.208	121
540.26	106
540.312	115
540.365	129
540.417	118
540.469	116
540.521	106
540.574	116
540.626	124
540.678	120
540.731	120
540.783	117
540.835	121
540.888	111
540.94	115
540.992	127
541.044	109
541.097	109
541.149	114
541.201	120
541.254	122
541.306	128
541.358	111
541.41	129
541.463	112
541.515	124
541.567	120
541.62	122
541.672	123
541.724	124
541.776	120
541.829	126
541.881	123
541.933	125
541.985	118
542.038	129
542.09	126
542.142	136
542.195	126
542.247	135
542.299	130
542.351	123
542.404	123
542.456	128
542.508	127
542.56	131
542.613	129
542.665	125
542.717	131
542.77	135
542.822	119
542.874	137
542.926	133
542.979	120
543.031	120
543.083	132
543.135	138
543.188	129
543.24	141
543.292	125
543.344	134
543.397	143
543.449	121
543.501	134
543.554	129
543.606	133
543.658	126
543.71	134
543.763	135
543.815	129
543.867	132
543.919	133
543.972	142
544.024	148
544.076	133
544.128	154
544.181	144
544.233	141
544.285	137
544.337	141
544.39	145
544.442	132
544.494	140
544.547	154
544.599	161
544.651	156
544.703	140
544.755	154
544.808	150
544.86	146
544.912	151
544.965	161
545.017	156
545.069	146
545.121	150
545.174	151
545.226	149
545.278	144
545.33	138
545.383	151
545.435	163
545.487	158
545.539	147
545.591	149
545.644	155
545.696	145
545.748	149
545.8	163
545.853	166
545.905	155
545.957	154
546.009	168
546.062	165
546.114	174
546.166	159
546.218	164
546.271	166
546.323	163
546.375	159
546.427	180
546.48	169
546.532	171
546.584	157
546.636	167
546.689	165
546.741	165
546.793	163
546.845	170
546.898	157
546.95	186
547.002	174
547.054	167
547.106	184
547.159	184
547.211	161
547.263	170
547.315	167
547.368	174
547.42	168
547.472	184
547.524	187
547.577	184
547.629	170
547.681	180
547.733	174
547.785	190
547.838	177
547.89	185
547.942	201
547.994	174
548.047	197
548.099	190
548.151	184
548.203	197
548.255	188
548.308	186
548.36	193
548.412	191
548.464	186
548.517	191
548.569	193
548.621	202
548.673	211
548.725	210
548.778	194
548.83	193
548.882	186
548.934	208
548.987	198
549.039	205
549.091	188
549.143	190
549.195	205
549.248	214
549.3	195
549.352	206
549.404	197
549.456	198
549.509	200
549.561	216
549.613	217
549.665	226
549.718	207
549.77	222
549.822	208
549.874	214
549.926	219
549.979	221
550.031	210
550.083	214
550.135	221
550.187	230
550.24	220
550.292	227
550.344	238
550.396	225
550.448	242
550.501	238
550.553	236
550.605	231
550.657	236
550.709	232
550.762	246
550.814	256
550.866	255
550.918	238
550.97	251
551.023	264
551.075	268
551.127	260
551.179	259
551.231	272
551.284	275
551.336	278
551.388	279
551.44	268
551.492	284
551.545	293
551.597	292
551.649	292
551.701	307
551.753	340
551.806	333
551.858	344
551.91	365
551.962	373
552.014	390
552.067	417
552.119	448
552.171	489
552.223	542
552.275	618
552.327	746
552.38	946
552.432	1480
552.484	3250
552.536	6964
552.588	13201
552.641	21878
552.693	32984
552.745	35779
552.797	17508
552.849	6293
552.901	2355
552.954	1347
553.006	935
553.058	740
553.11	628
553.162	539
553.215	490
553.267	428
553.319	413
553.371	402
553.423	376
553.475	359
553.528	362
553.58	367
553.632	336
553.684	337
553.736	321
553.788	332
553.841	320
553.893	319
553.945	312
553.997	313
554.049	316
554.102	305
554.154	298
554.206	288
554.258	297
554.31	307
554.362	304
554.414	300
554.467	300
554.519	297
554.571	299
554.623	307
554.675	308
554.727	299
554.78	310
554.832	318
554.884	306
554.936	302
554.988	302
555.04	295
555.093	307
555.145	305
555.197	298
555.249	298
555.301	298
555.353	299
555.406	307
555.458	304
555.51	320
555.562	322
555.614	303
555.666	318
555.719	327
555.771	319
555.823	320
555.875	320
555.927	327
555.979	345
556.031	311
556.084	324
556.136	325
556.188	322
556.24	318
556.292	323
556.344	330
556.396	330
556.449	335
556.501	334
556.553	341
556.605	348
556.657	331
556.709	353
556.762	335
556.814	343
556.866	342
556.918	364
556.97	369
557.022	353
557.074	358
557.127	359
557.179	357
557.231	357
557.283	348
557.335	361
557.387	364
557.439	370
557.492	352
557.544	372
557.596	377
557.648	385
557.7	366
557.752	381
557.804	376
557.856	394
557.909	361
557.961	378
558.013	368
558.065	383
558.117	368
558.169	368
558.221	378
558.273	386
558.326	370
558.378	383
558.43	394
558.482	382
558.534	394
558.586	391
558.638	399
558.691	397
558.743	389
558.795	411
558.847	403
558.899	396
558.951	410
559.003	405
559.055	412
559.108	402
559.16	418
559.212	401
559.264	393
559.316	407
559.368	403
559.42	412
559.472	413
559.525	404
559.577	400
559.629	411
559.681	414
559.733	419
559.785	406
559.837	426
559.889	444
559.941	426
559.994	417
560.046	424
560.098	417
560.15	437
560.202	433
560.254	442
560.306	441
560.358	443
560.41	421
560.463	438
560.515	428
560.567	430
560.619	449
560.671	464
560.723	441
560.775	438
560.827	453
560.879	456
560.932	478
560.984	459
561.036	449
561.088	481
561.14	471
561.192	472
561.244	503
561.296	458
561.348	467
561.4	486
561.453	466
561.505	465
561.557	479
561.609	486
561.661	494
561.713	497
561.765	494
561.817	502
561.869	512
561.921	500
561.974	487
562.026	500
562.078	508
562.13	507
562.182	527
562.234	540
562.286	517
562.338	532
562.39	543
562.442	531
562.494	540
562.547	550
562.599	542
562.651	556
562.703	543
562.755	557
562.807	546
562.859	559
562.911	562
562.963	540
563.015	572
563.067	573
563.12	561
563.172	574
563.224	574
563.276	607
563.328	614
563.38	596
563.432	606
563.484	599
563.536	594
563.588	620
563.64	648
563.692	638
563.744	631
563.797	647
563.849	662
563.901	678
563.953	678
564.005	715
564.057	700
564.109	712
564.161	742
564.213	726
564.265	713
564.317	752
564.369	728
564.421	735
564.474	726
564.526	715
564.578	714
564.63	705
564.682	711
564.734	700
564.786	683
564.838	663
564.89	671
564.942	691
564.994	700
565.046	688
565.098	656
565.15	655
565.202	669
565.255	634
565.307	674
565.359	678
565.411	667
565.463	681
565.515	684
565.567	672
565.619	693
565.671	690
565.723	674
565.775	668
565.827	674
565.879	688
565.931	721
565.983	683
566.035	679
566.087	676
566.139	678
566.192	680
566.244	692
566.296	686
566.348	696
566.4	689
566.452	706
566.504	715
566.556	707
566.608	719
566.66	704
566.712	702
566.764	738
566.816	706
566.868	714
566.92	704
566.972	735
567.024	744
567.076	756
567.128	727
567.18	747
567.232	728
567.285	762
567.337	730
567.389	731
567.441	754
567.493	747
567.545	749
567.597	739
567.649	764
567.701	743
567.753	748
567.805	766
567.857	769
567.909	780
567.961	764
568.013	783
568.065	768
568.117	771.92
568.169	777.847
568.221	779.525
568.273	783.094
568.325	783.325
568.377	783.574
568.429	800.531
568.481	811.2
568.533	820.874
568.585	820.49
568.637	808.53
568.69	788.031
568.742	830.194
568.794	798.993
568.846	812.724
568.898	830.349
568.95	823.621
569.002	812.169
569.054	831.324
569.106	837.475
569.158	836.199
569.21	853.346
569.262	828.803
569.314	859.64
569.366	854.297
569.418	860.487
569.47	856.469
569.522	867.96
569.574	860.478
569.626	866.417
569.678	885.626
569.73	874.601
569.782	881.382
569.834	890.342
569.886	883.588
569.938	888.718
569.99	884.411
570.042	911.641
570.094	901.936
570.146	907.379
570.198	928.911
570.25	911.589
570.302	936.528
570.354	913.36
570.406	930.234
570.458	938.8
570.51	962.801
570.562	979.537
570.614	963.745
570.666	962.566
570.718	979.725
570.77	981.662
570.822	992.05
570.874	981.4
570.926	997.2
570.978	1007.83
571.03	1026.83
571.082	1019.55
571.134	1025.34
571.186	1043.56
571.238	1048.8
571.29	1047.53
571.342	1069.6
571.394	1077.79
571.446	1089.55
571.498	1082.37
571.55	1084.78
571.602	1095.74
571.654	1148.47
571.706	1128.77
571.758	1146.12
571.81	1150.61
571.862	1148.62
571.914	1177.24
571.966	1168.42
572.018	1204.65
572.07	1189.07
572.122	1211.5
572.174	1233.87
572.226	1237.11
572.278	1268.97
572.33	1273.05
572.382	1299.12
572.434	1284.38
572.486	1305.23
572.538	1322.26
572.59	1323.22
572.642	1345.87
572.694	1336.28
572.746	1344.1
572.798	1368.27
572.85	1364.89
572.902	1385.54
572.954	1404.98
573.006	1444.22
573.058	1448.2
573.11	1455.21
573.162	1506.47
573.214	1482.41
573.266	1509.51
573.312	1510
573.364	1561
573.416	1571
573.469	1545
573.521	1615
573.573	1667
573.625	1657
573.677	1681
573.73	1749
573.782	1716
573.834	1737
573.886	1766
573.938	1838
573.991	1835
574.043	1876
574.095	1916
574.147	1929
574.199	1929
574.252	1968
574.304	2019
574.356	2058
574.408	2092
574.46	2130
574.513	2151
574.565	2199
574.617	2218
574.669	2245
574.721	2288
574.774	2367
574.826	2384
574.878	2409
574.93	2441
574.982	2531
575.035	2555
575.087	2620
575.139	2618
575.191	2731
575.243	2708
575.296	2800
575.348	2827
575.4	2856
575.452	2809
575.504	2857
575.556	2923
575.609	2990
575.661	2975
575.713	2966
575.765	3051
575.817	2993
575.87	2995
575.922	3044
575.974	3044
576.026	3054
576.078	3085
576.131	3088
576.183	3108
576.235	3089
576.287	3012
576.339	3020
576.391	2994
576.444	2934
576.496	2961
576.548	2889
576.6	2924
576.652	2874
576.705	2837
576.757	2796
576.809	2787
576.861	2769
576.913	2732
576.965	2756
577.018	2667
577.07	2636
577.122	2628
577.174	2582
577.226	2573
577.279	2535
577.331	2536
577.383	2479
577.435	2450
577.487	2410
577.539	2357
577.592	2353
577.644	2339
577.696	2295
577.748	2291
577.8	2269
577.852	2227
577.905	2183
577.957	2206
578.009	2200
578.061	2199
578.113	2171
578.165	2098
578.218	2077
578.27	2068
578.322	2080
578.374	2050
578.426	2054
578.478	2051
578.531	1999
578.583	2003
578.635	1966
578.687	2015
578.739	1958
578.791	1939
578.844	1955
578.896	1949
578.948	1942
579	1950
579.052	1923
579.104	1915
579.157	1936
579.209	1919
579.261	1890
579.313	1948
579.365	1915
579.417	1941
579.47	1920
579.522	1867
579.574	1913
579.626	1943
579.678	1942
579.73	1887
579.782	1907
579.835	1920
579.887	1922
579.939	1917
579.991	1897
580.043	1928
580.095	1932
580.148	1923
580.2	1922
580.252	1924
580.304	1917
580.356	1950
580.408	1915
580.46	1933
580.513	1925
580.565	1906
580.617	1897
580.669	1931
580.721	1945
580.773	1967
580.826	1913
580.878	1882
580.93	1922
580.982	1910
581.034	1933
581.086	1956
581.138	1904
581.191	1960
581.243	1916
581.295	1899
581.347	1916
581.399	1940
581.451	1907
581.503	1925
581.556	1992
581.608	1923
581.66	1927
581.712	1937
581.764	1939
581.816	1952
581.868	1954
581.92	1971
581.973	1938
582.025	1975
582.077	1984
582.129	2024
582.181	1957
582.233	2014
582.285	1992
582.338	2009
582.39	2049
582.442	2010
582.494	1963
582.546	1990
582.598	2009
582.65	2002
582.703	2013
582.755	2037
582.807	2067
582.859	2065
582.911	2026
582.963	2056
583.015	2025
583.067	2047
583.12	2064
583.172	2066
583.224	2044
583.276	2055
583.328	2057
583.38	2082
583.432	2055
583.484	2051
583.537	2105
583.589	2100
583.641	2101
583.693	2143
583.745	2104
583.797	2153
583.849	2149
583.901	2141
583.953	2138
584.006	2140
584.058	2183
584.11	2179
584.162	2179
584.214	2214
584.266	2174
584.318	2215
584.37	2208
584.423	2248
584.475	2193
584.527	2233
584.579	2260
584.631	2279
584.683	2287
584.735	2243
584.787	2288
584.839	2288
584.892	2290
584.944	2332
584.996	2298
585.048	2315
585.1	2332
585.152	2351
585.204	2353
585.256	2340
585.308	2345
585.361	2347
585.413	2387
585.465	2343
585.517	2427
585.569	2392
585.621	2444
585.673	2426
585.725	2430
585.777	2405
585.83	2382
585.882	2418
585.934	2475
585.986	2476
586.038	2430
586.09	2470
586.142	2449
586.194	2461
586.246	2475
586.298	2530
586.351	2499
586.403	2505
586.455	2532
586.507	2525
586.559	2485
586.611	2541
586.663	2582
586.715	2513
586.767	2499
586.819	2580
586.872	2579
586.924	2588
586.976	2601
587.028	2578
587.08	2558
587.132	2579
587.184	2576
587.236	2556
587.288	2595
587.34	2605
587.392	2582
587.445	2629
587.497	2564
587.549	2608
587.601	2604
587.653	2610
587.705	2624
587.757	2580
587.809	2579
587.861	2619
587.913	2590
587.965	2644
588.018	2665
588.07	2618
588.122	2624
588.174	2642
588.226	2636
588.278	2705
588.33	2643
588.382	2669
588.434	2650
588.486	2636
588.538	2623
588.59	2652
588.642	2659
588.695	2648
588.747	2679
588.799	2659
588.851	2665
588.903	2631
588.955	2702
589.007	2685
589.059	2655
589.111	2705
589.163	2744
589.215	2734
589.267	2694
589.319	2751
589.372	2731
589.424	2729
589.476	2759
589.528	2752
589.58	2722
589.632	2738
589.684	2743
589.736	2746
589.788	2751
589.84	2803
589.892	2708
589.944	2762
589.996	2713
590.048	2707
590.101	2728
590.153	2772
590.205	2694
590.257	2730
590.309	2705
590.361	2791
590.413	2745
590.465	2742
590.517	2749
590.569	2723
590.621	2772
590.673	2719
590.725	2725
590.777	2721
590.829	2750
590.881	2738
590.933	2731
590.986	2764
591.038	2708
591.09	2750
591.142	2692
591.194	2741
591.246	2719
591.298	2721
591.35	2707
591.402	2718
591.454	2698
591.506	2697
591.558	2733
591.61	2704
591.662	2694
591.714	2707
591.766	2681
591.818	2704
591.87	2656
591.923	2644
591.975	2633
592.027	2710
592.079	2614
592.131	2679
592.183	2675
592.235	2631
592.287	2682
592.339	2651
592.391	2676
592.443	2706
592.495	2703
592.547	2635
592.599	2702
592.651	2663
592.703	2677
592.755	2665
592.807	2696
592.859	2624
592.911	2691
592.963	2631
593.015	2678
593.068	2706
593.12	2673
593.172	2670
593.224	2687
593.276	2678
593.328	2665
593.38	2691
593.432	2660
593.484	2666
593.536	2702
593.588	2690
593.64	2636
593.692	2708
593.744	2664
593.796	2646
593.848	2674
593.9	2669
593.952	2676
594.004	2655
594.056	2732
594.108	2704
594.16	2734
594.212	2718
594.264	2647
594.316	2704
594.368	2702
594.42	2696
594.472	2717
594.524	2745
594.576	2714
594.628	2725
594.68	2716
594.732	2724
594.784	2760
594.837	2759
594.889	2749
594.941	2779
594.993	2796
595.045	2707
595.097	2764
595.149	2819
595.201	2796
595.253	2739
595.305	2767
595.357	2811
595.409	2780
595.461	2814
595.513	2801
595.565	2835
595.617	2818
595.669	2860
595.721	2822
595.773	2848
595.825	2853
595.877	2840
