#Acq. time (s)=	3
#Accumulations=	2
#Range (nm)=	520...900
#Windows=	8
#Auto scanning=	Off
#Autofocus=	Off
#AutoExposure=	Off
#Spike filter=	Multiple accum.
#Delay time (s)=	0
#Binning=	1
#Readout mode=	Signal
#DeNoise=	Off
#ICS correction=	Off
#Dark correction=	Off
#Inst. Process=	Off
#Detector temperature (°C)=	-59.98
#Instrument=	LabRAM HR Evol
#Detector=	Syncerity OE
#Objective=	x50_VIS
#Grating=	600 (500nm)
#ND Filter=	25%
#Laser=	514nm_Edge
#Hole=	199.981
#Range=	Auto
#StageXY=	Marzhauser
#StageZ=	Marzhauser
#X (µm)=	-94.9
#Y (µm)=	6302
#Z (µm)=	-9.9
#Full time(mm:ss)=	1:32
#Project=	
#Sample=	
#Site=	
#Title=	PL_M5_180324
#Remark=	
#Date=	28.03.2024 09:26
#Acquired=	28.03.2024 09:26:05
520.044	50
520.097	48
520.149	40
520.201	46
520.254	44
520.306	40
520.359	42
520.411	48
520.464	42
520.516	48
520.569	40
520.621	40
520.674	42
520.726	56
520.778	44
520.831	52
520.883	48
520.936	46
520.988	38
521.041	46
521.093	48
521.146	44
521.198	40
521.25	44
521.303	48
521.355	44
521.408	36
521.46	40
521.513	36
521.565	42
521.617	44
521.67	52
521.722	50
521.775	42
521.827	36
521.88	50
521.932	44
521.984	50
522.037	42
522.089	44
522.142	38
522.194	50
522.247	38
522.299	46
522.352	42
522.404	48
522.456	54
522.509	48
522.561	42
522.614	48
522.666	42
522.719	42
522.771	38
522.823	50
522.876	48
522.928	46
522.981	42
523.033	42
523.086	40
523.138	40
523.19	40
523.243	50
523.295	48
523.348	46
523.4	46
523.453	40
523.505	38
523.557	44
523.61	44
523.662	50
523.715	32
523.767	54
523.82	46
523.872	44
523.924	46
523.977	38
524.029	40
524.082	48
524.134	42
524.186	48
524.239	52
524.291	40
524.344	46
524.396	44
524.449	50
524.501	42
524.553	42
524.606	50
524.658	48
524.711	42
524.763	40
524.815	46
524.868	42
524.92	52
524.973	44
525.025	46
525.078	40
525.13	36
525.182	46
525.235	46
525.287	50
525.34	48
525.392	40
525.444	46
525.497	42
525.549	40
525.602	46
525.654	48
525.706	42
525.759	42
525.811	34
525.864	42
525.916	40
525.969	44
526.021	50
526.073	42
526.126	38
526.178	46
526.231	48
526.283	42
526.335	40
526.388	48
526.44	44
526.493	42
526.545	38
526.597	50
526.65	36
526.702	50
526.755	52
526.807	40
526.859	48
526.912	42
526.964	38
527.017	38
527.069	48
527.121	44
527.174	48
527.226	42
527.279	32
527.331	48
527.383	44
527.436	44
527.488	44
527.54	48
527.593	52
527.645	32
527.698	38
527.75	44
527.802	40
527.855	44
527.907	40
527.96	44
528.012	54
528.064	44
528.117	44
528.169	50
528.222	46
528.274	46
528.326	42
528.379	52
528.431	38
528.484	42
528.536	38
528.588	52
528.641	52
528.693	44
528.745	52
528.798	46
528.85	48
528.903	42
528.955	36
529.007	54
529.06	42
529.112	46
529.164	50
529.217	46
529.269	48
529.322	44
529.374	32
529.426	44
529.479	42
529.531	46
529.584	42
529.636	44
529.688	42
529.741	40
529.793	44
529.845	44
529.898	44
529.95	46
530.003	44
530.055	48
530.107	44
530.16	42
530.212	44
530.264	46
530.317	48
530.369	46
530.422	38
530.474	38
530.526	46
530.579	46
530.631	32
530.683	54
530.736	46
530.788	42
530.841	42
530.893	52
530.945	56
530.998	40
531.05	46
531.102	46
531.155	42
531.207	54
531.259	42
531.312	48
531.364	48
531.417	46
531.469	40
531.521	42
531.574	48
531.626	46
531.678	56
531.731	54
531.783	44
531.835	48
531.888	50
531.94	46
531.992	50
532.045	52
532.097	50
532.15	50
532.202	48
532.254	52
532.307	48
532.359	46
532.411	46
532.464	42
532.516	44
532.568	54
532.621	52
532.673	50
532.726	44
532.778	56
532.83	44
532.883	56
532.935	52
532.987	48
533.04	58
533.092	44
533.144	48
533.197	46
533.249	58
533.301	54
533.354	62
533.406	60
533.458	54
533.511	62
533.563	60
533.615	58
533.668	48
533.72	54
533.773	46
533.825	58
533.877	50
533.93	52
533.982	56
534.034	58
534.087	58
534.139	72
534.191	58
534.244	70
534.296	64
534.348	60
534.401	58
534.453	74
534.505	64
534.558	88
534.61	86
534.662	82
534.715	82
534.767	84
534.819	78
534.872	86
534.924	88
534.976	86
535.029	86
535.081	92
535.133	84
535.186	98
535.238	78
535.29	98
535.343	90
535.395	94
535.447	88
535.5	96
535.552	88
535.604	96
535.657	92
535.709	88
535.761	76
535.814	82
535.866	72
535.918	82
535.971	84
536.023	72
536.075	78
536.128	74
536.18	80
536.232	76
536.285	68
536.337	56
536.389	72
536.442	58
536.494	56
536.546	78
536.599	66
536.651	64
536.703	60
536.755	64
536.808	64
536.86	62
536.912	60
536.965	64
537.017	60
537.069	64
537.122	62
537.174	66
537.226	64
537.279	64
537.331	58
537.383	68
537.436	56
537.488	54
537.54	66
537.593	62
537.645	66
537.697	58
537.75	56
537.802	62
537.854	64
537.906	60
537.959	62
538.011	66
538.063	62
538.116	62
538.168	58
538.22	60
538.273	70
538.325	68
538.377	60
538.43	62
538.482	48
538.534	62
538.586	62
538.639	60
538.691	58
538.743	70
538.796	56
538.848	58
538.9	56
538.953	72
539.005	58
539.057	66
539.109	44
539.162	64
539.214	66
539.266	68
539.319	62
539.371	60
539.423	54
539.476	72
539.528	64
539.58	62
539.633	64
539.685	68
539.737	54
539.789	70
539.842	58
539.894	62
539.946	64
539.999	62
540.051	58
540.103	50
540.155	70
540.208	70
540.26	54
540.312	74
540.365	64
540.417	64
540.469	62
540.521	58
540.574	56
540.626	70
540.678	52
540.731	70
540.783	70
540.835	68
540.888	70
540.94	78
540.992	72
541.044	64
541.097	70
541.149	66
541.201	66
541.254	82
541.306	80
541.358	70
541.41	78
541.463	62
541.515	70
541.567	78
541.62	68
541.672	66
541.724	70
541.776	76
541.829	62
541.881	72
541.933	64
541.985	70
542.038	56
542.09	72
542.142	66
542.195	74
542.247	80
542.299	72
542.351	74
542.404	74
542.456	74
542.508	74
542.56	70
542.613	74
542.665	70
542.717	68
542.77	82
542.822	72
542.874	72
542.926	76
542.979	68
543.031	74
543.083	80
543.135	80
543.188	70
543.24	76
543.292	76
543.344	80
543.397	86
543.449	86
543.501	70
543.554	76
543.606	82
543.658	84
543.71	72
543.763	86
543.815	84
543.867	82
543.919	88
543.972	90
544.024	78
544.076	90
544.128	82
544.181	96
544.233	84
544.285	86
544.337	82
544.39	92
544.442	80
544.494	90
544.547	80
544.599	86
544.651	84
544.703	86
544.755	84
544.808	90
544.86	82
544.912	98
544.965	92
545.017	92
545.069	86
545.121	88
545.174	88
545.226	90
545.278	78
545.33	94
545.383	96
545.435	88
545.487	78
545.539	86
545.591	90
545.644	92
545.696	86
545.748	96
545.8	98
545.853	90
545.905	84
545.957	92
546.009	80
546.062	90
546.114	82
546.166	100
546.218	96
546.271	102
546.323	90
546.375	96
546.427	90
546.48	94
546.532	94
546.584	96
546.636	88
546.689	104
546.741	92
546.793	96
546.845	92
546.898	98
546.95	98
547.002	94
547.054	102
547.106	106
547.159	98
547.211	106
547.263	98
547.315	110
547.368	102
547.42	102
547.472	92
547.524	110
547.577	100
547.629	104
547.681	102
547.733	116
547.785	88
547.838	114
547.89	102
547.942	104
547.994	96
548.047	114
548.099	104
548.151	120
548.203	112
548.255	110
548.308	104
548.36	110
548.412	102
548.464	112
548.517	122
548.569	92
548.621	104
548.673	108
548.725	108
548.778	114
548.83	104
548.882	126
548.934	114
548.987	106
549.039	112
549.091	118
549.143	116
549.195	132
549.248	106
549.3	122
549.352	120
549.404	124
549.456	106
549.509	124
549.561	132
549.613	128
549.665	128
549.718	126
549.77	124
549.822	130
549.874	120
549.926	128
549.979	126
550.031	134
550.083	122
550.135	130
550.187	126
550.24	134
550.292	128
550.344	130
550.396	130
550.448	146
550.501	134
550.553	134
550.605	144
550.657	144
550.709	144
550.762	158
550.814	144
550.866	160
550.918	148
550.97	162
551.023	152
551.075	166
551.127	148
551.179	162
551.231	162
551.284	174
551.336	156
551.388	174
551.44	176
551.492	190
551.545	184
551.597	194
551.649	200
551.701	208
551.753	202
551.806	208
551.858	242
551.91	246
551.962	236
552.014	280
552.067	280
552.119	304
552.171	340
552.223	428
552.275	480
552.327	602
552.38	858
552.432	1594
552.484	3410
552.536	6330
552.588	11192
552.641	22606
552.693	32486
552.745	22360
552.797	10144
552.849	3590
552.901	1422
552.954	888
553.006	622
553.058	486
553.11	394
553.162	336
553.215	324
553.267	290
553.319	264
553.371	256
553.423	226
553.475	224
553.528	216
553.58	226
553.632	200
553.684	198
553.736	194
553.788	216
553.841	180
553.893	184
553.945	194
553.997	188
554.049	172
554.102	190
554.154	174
554.206	180
554.258	178
554.31	176
554.362	176
554.414	188
554.467	174
554.519	176
554.571	164
554.623	186
554.675	174
554.727	174
554.78	164
554.832	182
554.884	184
554.936	188
554.988	162
555.04	206
555.093	170
555.145	180
555.197	184
555.249	172
555.301	178
555.353	176
555.406	170
555.458	178
555.51	162
555.562	186
555.614	176
555.666	174
555.719	176
555.771	178
555.823	182
555.875	192
555.927	164
555.979	182
556.031	188
556.084	182
556.136	182
556.188	182
556.24	194
556.292	198
556.344	180
556.396	196
556.449	202
556.501	200
556.553	200
556.605	184
556.657	188
556.709	194
556.762	200
556.814	198
556.866	196
556.918	188
556.97	210
557.022	202
557.074	206
557.127	208
557.179	204
557.231	200
557.283	202
557.335	222
557.387	202
557.439	206
557.492	192
557.544	218
557.596	218
557.648	216
557.7	208
557.752	218
557.804	202
557.856	202
557.909	200
557.961	208
558.013	212
558.065	196
558.117	218
558.169	218
558.221	208
558.273	216
558.326	216
558.378	224
558.43	212
558.482	216
558.534	216
558.586	216
558.638	212
558.691	210
558.743	216
558.795	220
558.847	218
558.899	234
558.951	210
559.003	232
559.055	230
559.108	228
559.16	216
559.212	226
559.264	218
559.316	238
559.368	220
559.42	230
559.472	210
559.525	234
559.577	238
559.629	238
559.681	224
559.733	224
559.785	214
559.837	218
559.889	218
559.941	236
559.994	228
560.046	240
560.098	252
560.15	230
560.202	228
560.254	228
560.306	238
560.358	244
560.41	252
560.463	256
560.515	234
560.567	244
560.619	266
560.671	246
560.723	240
560.775	254
560.827	238
560.879	270
560.932	262
560.984	276
561.036	242
561.088	256
561.14	246
561.192	260
561.244	266
561.296	266
561.348	274
561.4	272
561.453	264
561.505	272
561.557	252
561.609	282
561.661	280
561.713	292
561.765	268
561.817	284
561.869	278
561.921	268
561.974	270
562.026	286
562.078	268
562.13	288
562.182	286
562.234	306
562.286	278
562.338	290
562.39	256
562.442	288
562.494	302
562.547	302
562.599	296
562.651	304
562.703	316
562.755	316
562.807	292
562.859	310
562.911	308
562.963	318
563.015	312
563.067	316
563.12	316
563.172	328
563.224	326
563.276	312
563.328	328
563.38	326
563.432	350
563.484	336
563.536	348
563.588	336
563.64	338
563.692	356
563.744	358
563.797	368
563.849	364
563.901	372
563.953	360
564.005	366
564.057	386
564.109	396
564.161	392
564.213	398
564.265	378
564.317	396
564.369	392
564.421	392
564.474	384
564.526	396
564.578	372
564.63	394
564.682	364
564.734	384
564.786	378
564.838	372
564.89	348
564.942	378
564.994	356
565.046	380
565.098	354
565.15	368
565.202	356
565.255	362
565.307	360
565.359	372
565.411	372
565.463	376
565.515	366
565.567	374
565.619	378
565.671	350
565.723	374
565.775	382
565.827	380
565.879	376
565.931	370
565.983	388
566.035	396
566.087	358
566.139	354
566.192	392
566.244	382
566.296	384
566.348	380
566.4	404
566.452	372
566.504	378
566.556	394
566.608	388
566.66	400
566.712	396
566.764	404
566.816	416
566.868	404
566.92	388
566.972	376
567.024	404
567.076	396
567.128	400
567.18	400
567.232	400
567.285	394
567.337	414
567.389	410
567.441	410
567.493	408
567.545	408
567.597	410
567.649	412
567.701	404
567.753	430
567.805	412
567.857	444
567.909	418
567.961	420
568.013	440
568.065	434
568.117	427.93
568.169	429.937
568.221	424.167
568.273	431.532
568.325	448.431
568.377	446.806
568.429	441.346
568.481	455.134
568.533	425.672
568.585	440.476
568.637	429.785
568.69	442.969
568.742	441.362
568.794	461.03
568.846	453.237
568.898	463.416
568.95	434.383
569.002	460.345
569.054	446.504
569.106	468.416
569.158	461.576
569.21	480.415
569.262	466.107
569.314	464.209
569.366	474.844
569.418	456.404
569.47	471.312
569.522	463.062
569.574	469.609
569.626	488.769
569.678	481.522
569.73	492.699
569.782	481.579
569.834	486.206
569.886	473.92
569.938	496.745
569.99	502.071
570.042	499.289
570.094	494.922
570.146	508.1
570.198	509.09
570.25	506.028
570.302	511.229
570.354	514.328
570.406	508.69
570.458	510.67
570.51	529.773
570.562	520.274
570.614	526.283
570.666	528.478
570.718	534.909
570.77	549.254
570.822	540.925
570.874	551.32
570.926	547.137
570.978	552.297
571.03	557.226
571.082	569.3
571.134	557.666
571.186	574.863
571.238	576.031
571.29	576.16
571.342	587.198
571.394	592.817
571.446	588.707
571.498	602.32
571.55	618.161
571.602	611.353
571.654	615.783
571.706	609.046
571.758	642.016
571.81	637.672
571.862	617.069
571.914	629.81
571.966	643.96
572.018	654.767
572.07	656.271
572.122	667.114
572.174	686.664
572.226	673.02
572.278	675.039
572.33	694.811
572.382	709.589
572.434	722.813
572.486	708.386
572.538	719.863
572.59	747.965
572.642	715.407
572.694	735.136
572.746	744.994
572.798	758.275
572.85	778.836
572.902	780.966
572.954	814.888
573.006	810.471
573.058	805.304
573.11	812.222
573.162	836.589
573.214	850.484
573.266	852.477
573.312	854
573.364	840
573.416	884
573.469	892
573.521	904
573.573	936
573.625	926
573.677	954
573.73	976
573.782	966
573.834	1000
573.886	1034
573.938	1050
573.991	1040
574.043	1062
574.095	1072
574.147	1070
574.199	1136
574.252	1076
574.304	1146
574.356	1168
574.408	1182
574.46	1212
574.513	1236
574.565	1240
574.617	1302
574.669	1310
574.721	1334
574.774	1352
574.826	1310
574.878	1402
574.93	1396
574.982	1456
575.035	1446
575.087	1466
575.139	1518
575.191	1504
575.243	1518
575.296	1560
575.348	1536
575.4	1572
575.452	1532
575.504	1618
575.556	1640
575.609	1646
575.661	1652
575.713	1640
575.765	1566
575.817	1682
575.87	1654
575.922	1692
575.974	1644
576.026	1652
576.078	1656
576.131	1644
576.183	1604
576.235	1640
576.287	1662
576.339	1640
576.391	1624
576.444	1586
576.496	1592
576.548	1542
576.6	1536
576.652	1528
576.705	1474
576.757	1532
576.809	1510
576.861	1480
576.913	1472
576.965	1366
577.018	1424
577.07	1396
577.122	1384
577.174	1374
577.226	1336
577.279	1316
577.331	1302
577.383	1326
577.435	1326
577.487	1296
577.539	1272
577.592	1248
577.644	1266
577.696	1208
577.748	1196
577.8	1236
577.852	1178
577.905	1162
577.957	1142
578.009	1158
578.061	1138
578.113	1158
578.165	1154
578.218	1142
578.27	1114
578.322	1132
578.374	1106
578.426	1110
578.478	1096
578.531	1116
578.583	1104
578.635	1062
578.687	1072
578.739	1050
578.791	1040
578.844	1076
578.896	1032
578.948	1064
579	1088
579.052	1034
579.104	1066
579.157	1046
579.209	1048
579.261	1050
579.313	1050
579.365	1056
579.417	1056
579.47	1066
579.522	1034
579.574	1070
579.626	1052
579.678	1050
579.73	1042
579.782	1006
579.835	1044
579.887	1034
579.939	1076
579.991	1066
580.043	1062
580.095	1068
580.148	1058
580.2	1046
580.252	1044
580.304	1058
580.356	1054
580.408	1070
580.46	1020
580.513	1056
580.565	1054
580.617	1070
580.669	1096
580.721	1046
580.773	998
580.826	1030
580.878	1072
580.93	1056
580.982	1066
581.034	1052
581.086	1046
581.138	1028
581.191	1046
581.243	1054
581.295	1056
581.347	1088
581.399	1050
581.451	1054
581.503	1096
581.556	1082
581.608	1078
581.66	1044
581.712	1078
581.764	1084
581.816	1082
581.868	1084
581.92	1050
581.973	1086
582.025	1090
582.077	1080
582.129	1094
582.181	1106
582.233	1108
582.285	1078
582.338	1128
582.39	1108
582.442	1130
582.494	1086
582.546	1102
582.598	1090
582.65	1094
582.703	1100
582.755	1094
582.807	1122
582.859	1118
582.911	1098
582.963	1110
583.015	1130
583.067	1134
583.12	1116
583.172	1148
583.224	1150
583.276	1136
583.328	1114
583.38	1142
583.432	1156
583.484	1140
583.537	1150
583.589	1180
583.641	1178
583.693	1166
583.745	1176
583.797	1176
583.849	1186
583.901	1188
583.953	1180
584.006	1194
584.058	1228
584.11	1190
584.162	1194
584.214	1200
584.266	1196
584.318	1192
584.37	1220
584.423	1206
584.475	1240
584.527	1242
584.579	1248
584.631	1244
584.683	1244
584.735	1242
584.787	1270
584.839	1278
584.892	1278
584.944	1258
584.996	1294
585.048	1252
585.1	1294
585.152	1290
585.204	1322
585.256	1286
585.308	1366
585.361	1318
585.413	1306
585.465	1320
585.517	1318
585.569	1314
585.621	1344
585.673	1316
585.725	1338
585.777	1316
585.83	1388
585.882	1360
585.934	1366
585.986	1396
586.038	1352
586.09	1380
586.142	1416
586.194	1398
586.246	1384
586.298	1382
586.351	1400
586.403	1360
586.455	1386
586.507	1390
586.559	1388
586.611	1370
586.663	1406
586.715	1380
586.767	1434
586.819	1402
586.872	1434
586.924	1394
586.976	1388
587.028	1430
587.08	1410
587.132	1414
587.184	1430
587.236	1410
587.288	1412
587.34	1422
587.392	1422
587.445	1420
587.497	1450
587.549	1444
587.601	1442
587.653	1428
587.705	1464
587.757	1424
587.809	1436
587.861	1436
587.913	1460
587.965	1424
588.018	1418
588.07	1456
588.122	1468
588.174	1492
588.226	1464
588.278	1460
588.33	1460
588.382	1466
588.434	1454
588.486	1444
588.538	1442
588.59	1494
588.642	1486
588.695	1472
588.747	1470
588.799	1508
588.851	1476
588.903	1474
588.955	1504
589.007	1516
589.059	1480
589.111	1504
589.163	1530
589.215	1534
589.267	1520
589.319	1560
589.372	1512
589.424	1532
589.476	1546
589.528	1504
589.58	1522
589.632	1554
589.684	1506
589.736	1498
589.788	1524
589.84	1526
589.892	1534
589.944	1498
589.996	1544
590.048	1516
590.101	1520
590.153	1512
590.205	1512
590.257	1508
590.309	1540
590.361	1500
590.413	1530
590.465	1512
590.517	1522
590.569	1528
590.621	1516
590.673	1506
590.725	1516
590.777	1528
590.829	1520
590.881	1492
590.933	1534
590.986	1538
591.038	1528
591.09	1464
591.142	1520
591.194	1510
591.246	1434
591.298	1472
591.35	1500
591.402	1466
591.454	1468
591.506	1472
591.558	1480
591.61	1488
591.662	1462
591.714	1446
591.766	1440
591.818	1468
591.87	1450
591.923	1456
591.975	1500
592.027	1474
592.079	1450
592.131	1476
592.183	1458
592.235	1462
592.287	1442
592.339	1470
592.391	1488
592.443	1440
592.495	1470
592.547	1400
592.599	1482
592.651	1498
592.703	1456
592.755	1422
592.807	1446
592.859	1486
592.911	1464
592.963	1434
593.015	1448
593.068	1486
593.12	1432
593.172	1478
593.224	1458
593.276	1460
593.328	1450
593.38	1432
593.432	1448
593.484	1456
593.536	1440
593.588	1460
593.64	1494
593.692	1470
593.744	1464
593.796	1458
593.848	1490
593.9	1460
593.952	1430
594.004	1466
594.056	1482
594.108	1458
594.16	1454
594.212	1492
594.264	1480
594.316	1472
594.368	1448
594.42	1478
594.472	1476
594.524	1488
594.576	1458
594.628	1504
594.68	1504
594.732	1480
594.784	1522
594.837	1524
594.889	1472
594.941	1462
594.993	1520
595.045	1478
595.097	1504
595.149	1528
595.201	1512
595.253	1512
595.305	1506
595.357	1532
595.409	1534
595.461	1542
595.513	1514
595.565	1564
595.617	1516
595.669	1558
595.721	1576
595.773	1524
595.825	1564
595.877	1530
595.929	1572
595.981	1570
596.033	1572
596.085	1554
596.137	1592
596.189	1598
596.241	1562
596.293	1598
596.345	1584
596.397	1644
596.449	1600
596.501	1638
596.553	1598
596.605	1670
596.657	1696
596.709	1666
596.761	1656
596.813	1622
