#Acq. time (s)=	3
#Accumulations=	2
#Range (nm)=	520...900
#Windows=	8
#Auto scanning=	Off
#Autofocus=	Off
#AutoExposure=	Off
#Spike filter=	Off
#Delay time (s)=	0
#Binning=	1
#Readout mode=	Signal
#DeNoise=	Off
#ICS correction=	Off
#Dark correction=	Off
#Inst. Process=	Off
#Detector temperature (°C)=	-59.98
#Instrument=	LabRAM HR Evol
#Detector=	Syncerity OE
#Objective=	x50_VIS
#Grating=	600 (500nm)
#ND Filter=	25%
#Laser=	514nm_Edge
#Hole=	199.981
#Range=	Visible
#StageXY=	Marzhauser
#StageZ=	Marzhauser
#X (µm)=	54.2
#Y (µm)=	9176.9
#Z (µm)=	-258.6
#Full time(mm:ss)=	1:32
#Project=	
#Sample=	
#Site=	
#Title=	PL_M1_280424
#Remark=	
#Date=	06.05.2024 16:38
#Acquired=	06.05.2024 16:38:37
520.044	62
520.097	55
520.149	46
520.201	59
520.254	51
520.306	46
520.359	41
520.411	53
520.464	49
520.516	51
520.569	41
520.621	62
520.674	55
520.726	51
520.778	44
520.831	48
520.883	51
520.936	48
520.988	47
521.041	50
521.093	53
521.146	58
521.198	43
521.25	54
521.303	52
521.355	53
521.408	53
521.46	56
521.513	52
521.565	52
521.617	45
521.67	56
521.722	45
521.775	52
521.827	54
521.88	50
521.932	52
521.984	47
522.037	45
522.089	58
522.142	52
522.194	56
522.247	47
522.299	53
522.352	47
522.404	48
522.456	42
522.509	56
522.561	61
522.614	54
522.666	47
522.719	55
522.771	41
522.823	54
522.876	51
522.928	54
522.981	52
523.033	56
523.086	44
523.138	48
523.19	50
523.243	65
523.295	52
523.348	56
523.4	51
523.453	54
523.505	44
523.557	52
523.61	53
523.662	47
523.715	48
523.767	54
523.82	51
523.872	55
523.924	46
523.977	49
524.029	54
524.082	48
524.134	43
524.186	54
524.239	51
524.291	58
524.344	45
524.396	47
524.449	60
524.501	51
524.553	47
524.606	57
524.658	56
524.711	55
524.763	43
524.815	53
524.868	50
524.92	51
524.973	50
525.025	56
525.078	51
525.13	56
525.182	48
525.235	47
525.287	48
525.34	57
525.392	37
525.444	54
525.497	46
525.549	53
525.602	49
525.654	48
525.706	54
525.759	51
525.811	44
525.864	50
525.916	53
525.969	50
526.021	42
526.073	52
526.126	59
526.178	51
526.231	41
526.283	57
526.335	45
526.388	53
526.44	39
526.493	50
526.545	48
526.597	51
526.65	43
526.702	51
526.755	49
526.807	56
526.859	50
526.912	54
526.964	47
527.017	51
527.069	48
527.121	53
527.174	61
527.226	58
527.279	46
527.331	45
527.383	45
527.436	54
527.488	47
527.54	50
527.593	49
527.645	55
527.698	46
527.75	57
527.802	53
527.855	49
527.907	41
527.96	46
528.012	49
528.064	53
528.117	46
528.169	54
528.222	53
528.274	45
528.326	48
528.379	50
528.431	47
528.484	53
528.536	43
528.588	50
528.641	51
528.693	50
528.745	51
528.798	55
528.85	48
528.903	49
528.955	56
529.007	54
529.06	48
529.112	52
529.164	43
529.217	54
529.269	52
529.322	54
529.374	47
529.426	46
529.479	49
529.531	46
529.584	51
529.636	54
529.688	50
529.741	51
529.793	44
529.845	44
529.898	50
529.95	49
530.003	42
530.055	47
530.107	48
530.16	52
530.212	51
530.264	41
530.317	51
530.369	52
530.422	51
530.474	46
530.526	52
530.579	55
530.631	52
530.683	43
530.736	53
530.788	54
530.841	51
530.893	41
530.945	54
530.998	55
531.05	47
531.102	43
531.155	56
531.207	49
531.259	52
531.312	39
531.364	53
531.417	59
531.469	47
531.521	53
531.574	57
531.626	49
531.678	54
531.731	51
531.783	58
531.835	51
531.888	51
531.94	54
531.992	61
532.045	47
532.097	50
532.15	42
532.202	53
532.254	53
532.307	61
532.359	51
532.411	55
532.464	55
532.516	54
532.568	57
532.621	63
532.673	54
532.726	48
532.778	52
532.83	59
532.883	49
532.935	52
532.987	44
533.04	63
533.092	54
533.144	55
533.197	53
533.249	57
533.301	55
533.354	59
533.406	57
533.458	49
533.511	59
533.563	59
533.615	50
533.668	59
533.72	56
533.773	60
533.825	50
533.877	61
533.93	64
533.982	60
534.034	51
534.087	65
534.139	62
534.191	63
534.244	66
534.296	63
534.348	62
534.401	70
534.453	60
534.505	66
534.558	63
534.61	68
534.662	60
534.715	66
534.767	74
534.819	69
534.872	70
534.924	79
534.976	80
535.029	76
535.081	65
535.133	76
535.186	78
535.238	82
535.29	67
535.343	88
535.395	74
535.447	76
535.5	71
535.552	75
535.604	74
535.657	67
535.709	71
535.761	68
535.814	67
535.866	70
535.918	69
535.971	73
536.023	69
536.075	67
536.128	63
536.18	76
536.232	74
536.285	70
536.337	63
536.389	66
536.442	70
536.494	70
536.546	69
536.599	71
536.651	68
536.703	69
536.755	60
536.808	70
536.86	67
536.912	71
536.965	66
537.017	74
537.069	61
537.122	68
537.174	57
537.226	70
537.279	67
537.331	58
537.383	63
537.436	72
537.488	66
537.54	69
537.593	68
537.645	67
537.697	63
537.75	58
537.802	58
537.854	71
537.906	63
537.959	65
538.011	57
538.063	67
538.116	79
538.168	70
538.22	63
538.273	68
538.325	62
538.377	69
538.43	65
538.482	62
538.534	69
538.586	70
538.639	60
538.691	69
538.743	65
538.796	71
538.848	59
538.9	64
538.953	69
539.005	66
539.057	69
539.109	61
539.162	61
539.214	72
539.266	58
539.319	69
539.371	67
539.423	67
539.476	60
539.528	67
539.58	66
539.633	77
539.685	70
539.737	68
539.789	70
539.842	73
539.894	63
539.946	70
539.999	75
540.051	68
540.103	67
540.155	73
540.208	69
540.26	64
540.312	60
540.365	75
540.417	69
540.469	76
540.521	66
540.574	70
540.626	69
540.678	69
540.731	64
540.783	64
540.835	75
540.888	76
540.94	65
540.992	75
541.044	80
541.097	74
541.149	70
541.201	66
541.254	77
541.306	72
541.358	67
541.41	64
541.463	75
541.515	69
541.567	63
541.62	73
541.672	67
541.724	76
541.776	69
541.829	70
541.881	83
541.933	77
541.985	73
542.038	72
542.09	77
542.142	77
542.195	77
542.247	79
542.299	74
542.351	76
542.404	61
542.456	67
542.508	78
542.56	75
542.613	71
542.665	64
542.717	78
542.77	72
542.822	64
542.874	79
542.926	89
542.979	78
543.031	86
543.083	79
543.135	85
543.188	85
543.24	81
543.292	74
543.344	79
543.397	81
543.449	86
543.501	71
543.554	89
543.606	81
543.658	78
543.71	71
543.763	80
543.815	87
543.867	81
543.919	80
543.972	94
544.024	85
544.076	82
544.128	79
544.181	97
544.233	91
544.285	85
544.337	87
544.39	95
544.442	85
544.494	90
544.547	82
544.599	87
544.651	94
544.703	82
544.755	84
544.808	93
544.86	84
544.912	93
544.965	83
545.017	94
545.069	84
545.121	91
545.174	86
545.226	98
545.278	86
545.33	81
545.383	83
545.435	98
545.487	95
545.539	98
545.591	88
545.644	101
545.696	96
545.748	85
545.8	96
545.853	81
545.905	100
545.957	92
546.009	89
546.062	91
546.114	85
546.166	94
546.218	84
546.271	98
546.323	104
546.375	100
546.427	86
546.48	95
546.532	97
546.584	96
546.636	92
546.689	97
546.741	95
546.793	95
546.845	82
546.898	103
546.95	101
547.002	101
547.054	97
547.106	109
547.159	103
547.211	106
547.263	94
547.315	99
547.368	102
547.42	102
547.472	89
547.524	99
547.577	100
547.629	102
547.681	104
547.733	104
547.785	109
547.838	107
547.89	105
547.942	122
547.994	115
548.047	112
548.099	99
548.151	121
548.203	109
548.255	112
548.308	100
548.36	113
548.412	118
548.464	114
548.517	114
548.569	114
548.621	116
548.673	114
548.725	114
548.778	117
548.83	109
548.882	111
548.934	111
548.987	124
549.039	115
549.091	127
549.143	109
549.195	118
549.248	135
549.3	120
549.352	110
549.404	125
549.456	119
549.509	129
549.561	122
549.613	124
549.665	128
549.718	121
549.77	118
549.822	123
549.874	121
549.926	129
549.979	117
550.031	122
550.083	133
550.135	132
550.187	136
550.24	133
550.292	139
550.344	135
550.396	129
550.448	139
550.501	127
550.553	138
550.605	132
550.657	146
550.709	135
550.762	147
550.814	151
550.866	149
550.918	145
550.97	154
551.023	141
551.075	145
551.127	142
551.179	151
551.231	157
551.284	178
551.336	162
551.388	174
551.44	163
551.492	170
551.545	172
551.597	179
551.649	189
551.701	199
551.753	182
551.806	204
551.858	208
551.91	231
551.962	241
552.014	254
552.067	246
552.119	277
552.171	314
552.223	362
552.275	393
552.327	476
552.38	573
552.432	795
552.484	1494
552.536	3264
552.588	6123
552.641	10662
552.693	18033
552.745	28621
552.797	26848
552.849	13401
552.901	4822
552.954	1800
553.006	980
553.058	673
553.11	509
553.162	426
553.215	367
553.267	324
553.319	296
553.371	275
553.423	268
553.475	243
553.528	221
553.58	232
553.632	217
553.684	214
553.736	194
553.788	206
553.841	200
553.893	188
553.945	180
553.997	176
554.049	194
554.102	189
554.154	172
554.206	178
554.258	191
554.31	171
554.362	178
554.414	166
554.467	172
554.519	173
554.571	174
554.623	179
554.675	179
554.727	169
554.78	165
554.832	171
554.884	166
554.936	169
554.988	176
555.04	188
555.093	176
555.145	171
555.197	159
555.249	168
555.301	169
555.353	170
555.406	168
555.458	177
555.51	172
555.562	178
555.614	159
555.666	179
555.719	160
555.771	181
555.823	178
555.875	178
555.927	192
555.979	192
556.031	173
556.084	176
556.136	184
556.188	190
556.24	177
556.292	187
556.344	191
556.396	182
556.449	175
556.501	182
556.553	177
556.605	177
556.657	185
556.709	184
556.762	199
556.814	184
556.866	203
556.918	186
556.97	197
557.022	199
557.074	194
557.127	202
557.179	208
557.231	200
557.283	201
557.335	179
557.387	209
557.439	211
557.492	197
557.544	201
557.596	204
557.648	203
557.7	204
557.752	201
557.804	201
557.856	207
557.909	200
557.961	203
558.013	198
558.065	208
558.117	210
558.169	206
558.221	219
558.273	206
558.326	209
558.378	203
558.43	218
558.482	211
558.534	203
558.586	211
558.638	206
558.691	208
558.743	214
558.795	212
558.847	211
558.899	220
558.951	217
559.003	208
559.055	220
559.108	213
559.16	219
559.212	209
559.264	227
559.316	224
559.368	225
559.42	203
559.472	225
559.525	238
559.577	223
559.629	223
559.681	241
559.733	232
559.785	225
559.837	217
559.889	241
559.941	244
559.994	229
560.046	230
560.098	246
560.15	238
560.202	223
560.254	234
560.306	238
560.358	225
560.41	232
560.463	235
560.515	239
560.567	236
560.619	241
560.671	241
560.723	243
560.775	244
560.827	248
560.879	246
560.932	243
560.984	248
561.036	247
561.088	236
561.14	261
561.192	259
561.244	251
561.296	252
561.348	269
561.4	261
561.453	257
561.505	244
561.557	264
561.609	266
561.661	265
561.713	261
561.765	263
561.817	266
561.869	280
561.921	264
561.974	278
562.026	270
562.078	275
562.13	274
562.182	290
562.234	297
562.286	280
562.338	274
562.39	278
562.442	292
562.494	280
562.547	282
562.599	294
562.651	280
562.703	303
562.755	286
562.807	290
562.859	291
562.911	288
562.963	292
563.015	302
563.067	317
563.12	293
563.172	298
563.224	306
563.276	298
563.328	309
563.38	293
563.432	310
563.484	324
563.536	317
563.588	321
563.64	326
563.692	323
563.744	328
563.797	300
563.849	337
563.901	340
563.953	363
564.005	330
564.057	337
564.109	353
564.161	348
564.213	347
564.265	342
564.317	368
564.369	385
564.421	340
564.474	362
564.526	360
564.578	365
564.63	345
564.682	351
564.734	361
564.786	371
564.838	370
564.89	340
564.942	368
564.994	354
565.046	348
565.098	359
565.15	346
565.202	362
565.255	333
565.307	333
565.359	357
565.411	345
565.463	332
565.515	350
565.567	351
565.619	371
565.671	343
565.723	341
565.775	353
565.827	348
565.879	345
565.931	361
565.983	359
566.035	365
566.087	358
566.139	359
566.192	362
566.244	364
566.296	359
566.348	373
566.4	377
566.452	370
566.504	368
566.556	382
566.608	368
566.66	368
566.712	364
566.764	386
566.816	375
566.868	385
566.92	370
566.972	380
567.024	380
567.076	390
567.128	381
567.18	379
567.232	371
567.285	397
567.337	382
567.389	402
567.441	407
567.493	393
567.545	405
567.597	406
567.649	397
567.701	399
567.753	408
567.805	397
567.857	398
567.909	418
567.961	428
568.013	411
568.065	408
568.117	419.905
568.169	419.787
568.221	430.528
568.273	430.497
568.325	428.479
568.377	426.167
568.429	407.566
568.481	433.34
568.533	456.891
568.585	425.242
568.637	433.009
568.69	431.266
568.742	409.96
568.794	441.592
568.846	436.431
568.898	452.087
568.95	440.678
569.002	421.156
569.054	442.185
569.106	446.862
569.158	451.159
569.21	437.91
569.262	437.099
569.314	446.343
569.366	457.906
569.418	476.627
569.47	457.88
569.522	458.589
569.574	443.898
569.626	455.359
569.678	475.068
569.73	460.89
569.782	473.804
569.834	482.281
569.886	476.058
569.938	481.148
569.99	479.261
570.042	483.723
570.094	477.518
570.146	494.317
570.198	481.637
570.25	483.706
570.302	486.029
570.354	500.863
570.406	509.759
570.458	517.6
570.51	508.473
570.562	503.314
570.614	513.352
570.666	513.948
570.718	510.387
570.77	522.561
570.822	522.154
570.874	540.48
570.926	540.996
570.978	545.897
571.03	546.022
571.082	554.142
571.134	564.766
571.186	560.86
571.238	551.334
571.29	568.02
571.342	579.309
571.394	569.081
571.446	559.472
571.498	582.862
571.55	592.958
571.602	600.383
571.654	604.552
571.706	609.927
571.758	613.753
571.81	619.19
571.862	625.557
571.914	632.22
571.966	634.661
572.018	645.826
572.07	646.553
572.122	655.69
572.174	669.484
572.226	666.33
572.278	679.452
572.33	681.695
572.382	681.299
572.434	704.829
572.486	713.898
572.538	730.984
572.59	715.232
572.642	712.057
572.694	732.422
572.746	742.653
572.798	770.951
572.85	774.885
572.902	785.16
572.954	795.896
573.006	817.364
573.058	813.547
573.11	807.846
573.162	802.485
573.214	823.004
573.266	845.705
573.312	833
573.364	847
573.416	898
573.469	884
573.521	901
573.573	921
573.625	960
573.677	954
573.73	953
573.782	977
573.834	978
573.886	1021
573.938	1027
573.991	1049
574.043	1041
574.095	1074
574.147	1079
574.199	1112
574.252	1090
574.304	1143
574.356	1149
574.408	1168
574.46	1199
574.513	1193
574.565	1230
574.617	1264
574.669	1269
574.721	1271
574.774	1300
574.826	1298
574.878	1319
574.93	1339
574.982	1359
575.035	1376
575.087	1379
575.139	1371
575.191	1409
575.243	1416
575.296	1437
575.348	1444
575.4	1432
575.452	1460
575.504	1511
575.556	1464
575.609	1441
575.661	1475
575.713	1495
575.765	1459
575.817	1482
575.87	1465
575.922	1487
575.974	1471
576.026	1462
576.078	1432
576.131	1467
576.183	1459
576.235	1445
576.287	1475
576.339	1436
576.391	1403
576.444	1408
576.496	1441
576.548	1400
576.6	1364
576.652	1385
576.705	1388
576.757	1366
576.809	1361
576.861	1332
576.913	1316
576.965	1304
577.018	1290
577.07	1313
577.122	1270
577.174	1247
577.226	1258
577.279	1248
577.331	1236
577.383	1223
577.435	1204
577.487	1231
577.539	1200
577.592	1180
577.644	1174
577.696	1156
577.748	1183
577.8	1150
577.852	1100
577.905	1138
577.957	1128
578.009	1120
578.061	1083
578.113	1092
578.165	1101
578.218	1074
578.27	1065
578.322	1075
578.374	1090
578.426	1027
578.478	1046
578.531	1000
578.583	1034
578.635	1056
578.687	1016
578.739	1026
578.791	1016
578.844	1008
578.896	1010
578.948	1001
579	1021
579.052	1011
579.104	1014
579.157	1015
579.209	999
579.261	1009
579.313	946
579.365	971
579.417	1008
579.47	979
579.522	980
579.574	1028
579.626	1008
579.678	991
579.73	955
579.782	1001
579.835	998
579.887	969
579.939	996
579.991	1011
580.043	1000
580.095	1006
580.148	981
580.2	1004
580.252	1021
580.304	1000
580.356	997
580.408	999
580.46	986
580.513	978
580.565	1007
580.617	991
580.669	972
580.721	1008
580.773	981
580.826	991
580.878	1007
580.93	1002
580.982	975
581.034	986
581.086	1014
581.138	1002
581.191	1022
581.243	1015
581.295	1017
581.347	1010
581.399	1015
581.451	1020
581.503	1022
581.556	999
581.608	1027
581.66	1016
581.712	1018
581.764	1025
581.816	1026
581.868	1017
581.92	1030
581.973	1040
582.025	1030
582.077	1029
582.129	1050
582.181	1040
582.233	1058
582.285	1066
582.338	1053
582.39	1051
582.442	1070
582.494	1045
582.546	1071
582.598	1027
582.65	1060
582.703	1082
582.755	1071
582.807	1043
582.859	1081
582.911	1075
582.963	1080
583.015	1088
583.067	1057
583.12	1104
583.172	1092
583.224	1075
583.276	1064
583.328	1090
583.38	1084
583.432	1098
583.484	1084
583.537	1121
583.589	1100
583.641	1105
583.693	1102
583.745	1128
583.797	1148
583.849	1123
583.901	1158
583.953	1162
584.006	1137
584.058	1147
584.11	1145
584.162	1154
584.214	1134
584.266	1156
584.318	1173
584.37	1171
584.423	1177
584.475	1173
584.527	1200
584.579	1190
584.631	1193
584.683	1185
584.735	1218
584.787	1212
584.839	1210
584.892	1244
584.944	1178
584.996	1193
585.048	1222
585.1	1225
585.152	1255
585.204	1232
585.256	1260
585.308	1223
585.361	1215
585.413	1272
585.465	1271
585.517	1273
585.569	1266
585.621	1262
585.673	1252
585.725	1236
585.777	1276
585.83	1284
585.882	1255
585.934	1273
585.986	1290
586.038	1302
586.09	1302
586.142	1317
586.194	1324
586.246	1327
586.298	1289
586.351	1283
586.403	1322
586.455	1333
586.507	1336
586.559	1329
586.611	1334
586.663	1330
586.715	1323
586.767	1334
586.819	1312
586.872	1360
586.924	1327
586.976	1334
587.028	1344
587.08	1369
587.132	1368
587.184	1377
587.236	1365
587.288	1343
587.34	1347
587.392	1349
587.445	1398
587.497	1365
587.549	1375
587.601	1395
587.653	1385
587.705	1355
587.757	1397
587.809	1346
587.861	1366
587.913	1387
587.965	1410
588.018	1352
588.07	1368
588.122	1380
588.174	1347
588.226	1401
588.278	1386
588.33	1361
588.382	1364
588.434	1389
588.486	1389
588.538	1448
588.59	1395
588.642	1388
588.695	1410
588.747	1406
588.799	1400
588.851	1393
588.903	1396
588.955	1370
589.007	1448
589.059	1438
589.111	1379
589.163	1430
589.215	1427
589.267	1447
589.319	1426
589.372	1445
589.424	1419
589.476	1433
589.528	1457
589.58	1456
589.632	1452
589.684	1447
589.736	1433
589.788	1453
589.84	1483
589.892	1439
589.944	1432
589.996	1428
590.048	1437
590.101	1421
590.153	1443
590.205	1407
590.257	1424
590.309	1436
590.361	1438
590.413	1433
590.465	1439
590.517	1441
590.569	1432
590.621	1443
590.673	1452
590.725	1388
590.777	1423
590.829	1446
590.881	1430
590.933	1440
590.986	1451
591.038	1417
591.09	1460
591.142	1442
591.194	1425
591.246	1420
591.298	1401
591.35	1414
591.402	1410
591.454	1418
591.506	1408
591.558	1401
591.61	1408
591.662	1410
591.714	1415
591.766	1416
591.818	1405
591.87	1406
591.923	1387
591.975	1386
592.027	1388
592.079	1394
592.131	1374
592.183	1387
592.235	1407
592.287	1391
592.339	1373
592.391	1399
592.443	1405
592.495	1396
592.547	1380
592.599	1396
592.651	1372
592.703	1420
592.755	1389
592.807	1363
592.859	1359
592.911	1384
592.963	1379
593.015	1374
593.068	1362
593.12	1398
593.172	1402
593.224	1381
593.276	1405
593.328	1419
593.38	1378
593.432	1365
593.484	1395
593.536	1368
593.588	1354
593.64	1384
593.692	1414
593.744	1396
593.796	1390
593.848	1421
593.9	1378
593.952	1399
594.004	1392
594.056	1409
594.108	1399
594.16	1407
594.212	1414
594.264	1411
594.316	1395
594.368	1429
594.42	1427
594.472	1409
594.524	1409
594.576	1426
594.628	1422
594.68	1457
594.732	1427
594.784	1448
594.837	1427
594.889	1415
594.941	1448
594.993	1466
595.045	1445
595.097	1454
595.149	1475
595.201	1456
595.253	1471
595.305	1453
595.357	1478
595.409	1470
595.461	1456
595.513	1469
595.565	1471
595.617	1491
595.669	1489
595.721	1472
595.773	1482
595.825	1517
595.877	1501
595.929	1522
595.981	1480
596.033	1517
596.085	1481
596.137	1525
596.189	1547
596.241	1547
596.293	1521
596.345	1505
596.397	1501
596.449	1528
596.501	1531
596.553	1553
596.605	1569
596.657	1569
596.709	1580
596.761	1583
596.813	1565
596.865	1585
596.917	1578
