#Acq. time (s)=	3
#Accumulations=	2
#Range (nm)=	520...900
#Windows=	8
#Auto scanning=	Off
#Autofocus=	Off
#AutoExposure=	Off
#Spike filter=	Off
#Delay time (s)=	0
#Binning=	1
#Readout mode=	Signal
#DeNoise=	Off
#ICS correction=	Off
#Dark correction=	Off
#Inst. Process=	Off
#Detector temperature (°C)=	-59.98
#Instrument=	LabRAM HR Evol
#Detector=	Syncerity OE
#Objective=	x50_VIS
#Grating=	600 (500nm)
#ND Filter=	25%
#Laser=	514nm_Edge
#Hole=	199.981
#Range=	Visible
#StageXY=	Marzhauser
#StageZ=	Marzhauser
#X (µm)=	-9072.9
#Y (µm)=	12449.1
#Z (µm)=	-262.1
#Full time(mm:ss)=	1:32
#Project=	
#Sample=	
#Site=	
#Title=	PL_M8_280424
#Remark=	
#Date=	06.05.2024 16:52
#Acquired=	06.05.2024 16:52:47
520.044	48
520.097	52
520.149	53
520.201	47
520.254	45
520.306	49
520.359	57
520.411	44
520.464	56
520.516	52
520.569	56
520.621	44
520.674	49
520.726	51
520.778	52
520.831	49
520.883	54
520.936	56
520.988	53
521.041	54
521.093	49
521.146	52
521.198	48
521.25	55
521.303	68
521.355	59
521.408	53
521.46	54
521.513	53
521.565	56
521.617	54
521.67	51
521.722	49
521.775	55
521.827	60
521.88	45
521.932	52
521.984	48
522.037	50
522.089	48
522.142	54
522.194	45
522.247	57
522.299	46
522.352	51
522.404	51
522.456	53
522.509	51
522.561	49
522.614	52
522.666	51
522.719	47
522.771	46
522.823	53
522.876	49
522.928	53
522.981	56
523.033	51
523.086	51
523.138	51
523.19	48
523.243	50
523.295	52
523.348	53
523.4	50
523.453	59
523.505	52
523.557	51
523.61	55
523.662	62
523.715	54
523.767	48
523.82	49
523.872	53
523.924	52
523.977	53
524.029	57
524.082	50
524.134	52
524.186	53
524.239	56
524.291	58
524.344	59
524.396	55
524.449	51
524.501	58
524.553	57
524.606	56
524.658	62
524.711	56
524.763	47
524.815	47
524.868	51
524.92	49
524.973	52
525.025	51
525.078	48
525.13	59
525.182	62
525.235	58
525.287	48
525.34	52
525.392	61
525.444	61
525.497	48
525.549	62
525.602	60
525.654	59
525.706	56
525.759	54
525.811	55
525.864	40
525.916	51
525.969	55
526.021	56
526.073	55
526.126	55
526.178	56
526.231	49
526.283	53
526.335	45
526.388	51
526.44	54
526.493	50
526.545	53
526.597	48
526.65	50
526.702	51
526.755	49
526.807	49
526.859	56
526.912	58
526.964	56
527.017	54
527.069	55
527.121	51
527.174	46
527.226	58
527.279	48
527.331	53
527.383	50
527.436	51
527.488	55
527.54	54
527.593	64
527.645	60
527.698	70
527.75	54
527.802	57
527.855	55
527.907	53
527.96	45
528.012	54
528.064	41
528.117	57
528.169	54
528.222	52
528.274	53
528.326	52
528.379	59
528.431	46
528.484	53
528.536	50
528.588	61
528.641	53
528.693	51
528.745	57
528.798	54
528.85	50
528.903	49
528.955	57
529.007	48
529.06	56
529.112	51
529.164	52
529.217	55
529.269	49
529.322	48
529.374	54
529.426	49
529.479	56
529.531	58
529.584	63
529.636	51
529.688	57
529.741	53
529.793	58
529.845	54
529.898	53
529.95	56
530.003	51
530.055	48
530.107	54
530.16	56
530.212	54
530.264	58
530.317	56
530.369	60
530.422	60
530.474	53
530.526	49
530.579	51
530.631	56
530.683	54
530.736	58
530.788	50
530.841	56
530.893	54
530.945	58
530.998	54
531.05	55
531.102	58
531.155	55
531.207	55
531.259	62
531.312	63
531.364	63
531.417	60
531.469	61
531.521	58
531.574	63
531.626	58
531.678	58
531.731	54
531.783	62
531.835	59
531.888	65
531.94	60
531.992	59
532.045	65
532.097	61
532.15	57
532.202	65
532.254	58
532.307	55
532.359	54
532.411	57
532.464	66
532.516	68
532.568	63
532.621	60
532.673	61
532.726	66
532.778	59
532.83	53
532.883	64
532.935	55
532.987	63
533.04	61
533.092	64
533.144	60
533.197	64
533.249	58
533.301	66
533.354	63
533.406	69
533.458	69
533.511	64
533.563	72
533.615	65
533.668	64
533.72	69
533.773	67
533.825	58
533.877	64
533.93	59
533.982	76
534.034	65
534.087	66
534.139	68
534.191	69
534.244	64
534.296	69
534.348	63
534.401	73
534.453	79
534.505	61
534.558	84
534.61	76
534.662	72
534.715	73
534.767	80
534.819	80
534.872	84
534.924	83
534.976	80
535.029	81
535.081	83
535.133	93
535.186	86
535.238	97
535.29	82
535.343	79
535.395	91
535.447	86
535.5	77
535.552	93
535.604	83
535.657	81
535.709	74
535.761	77
535.814	86
535.866	81
535.918	80
535.971	71
536.023	77
536.075	77
536.128	73
536.18	74
536.232	71
536.285	69
536.337	75
536.389	75
536.442	70
536.494	78
536.546	78
536.599	63
536.651	78
536.703	78
536.755	73
536.808	69
536.86	67
536.912	73
536.965	74
537.017	74
537.069	69
537.122	70
537.174	72
537.226	70
537.279	65
537.331	70
537.383	79
537.436	70
537.488	67
537.54	73
537.593	69
537.645	76
537.697	76
537.75	68
537.802	70
537.854	68
537.906	65
537.959	77
538.011	69
538.063	71
538.116	75
538.168	75
538.22	75
538.273	66
538.325	66
538.377	77
538.43	69
538.482	75
538.534	72
538.586	77
538.639	68
538.691	64
538.743	74
538.796	74
538.848	68
538.9	75
538.953	67
539.005	75
539.057	81
539.109	71
539.162	74
539.214	80
539.266	81
539.319	66
539.371	69
539.423	65
539.476	70
539.528	68
539.58	71
539.633	79
539.685	71
539.737	70
539.789	66
539.842	70
539.894	65
539.946	70
539.999	75
540.051	79
540.103	78
540.155	80
540.208	78
540.26	76
540.312	74
540.365	74
540.417	73
540.469	83
540.521	84
540.574	69
540.626	80
540.678	71
540.731	79
540.783	68
540.835	78
540.888	79
540.94	81
540.992	76
541.044	85
541.097	76
541.149	79
541.201	76
541.254	69
541.306	83
541.358	83
541.41	87
541.463	70
541.515	75
541.567	81
541.62	77
541.672	78
541.724	77
541.776	82
541.829	79
541.881	81
541.933	84
541.985	72
542.038	84
542.09	79
542.142	81
542.195	80
542.247	70
542.299	82
542.351	88
542.404	83
542.456	74
542.508	85
542.56	77
542.613	79
542.665	88
542.717	81
542.77	86
542.822	83
542.874	79
542.926	85
542.979	89
543.031	86
543.083	87
543.135	83
543.188	85
543.24	85
543.292	86
543.344	95
543.397	89
543.449	90
543.501	89
543.554	92
543.606	85
543.658	88
543.71	95
543.763	94
543.815	90
543.867	94
543.919	93
543.972	90
544.024	104
544.076	92
544.128	90
544.181	93
544.233	92
544.285	89
544.337	99
544.39	91
544.442	96
544.494	95
544.547	83
544.599	90
544.651	91
544.703	100
544.755	89
544.808	96
544.86	98
544.912	92
544.965	95
545.017	88
545.069	93
545.121	101
545.174	99
545.226	97
545.278	93
545.33	95
545.383	102
545.435	92
545.487	92
545.539	100
545.591	90
545.644	105
545.696	89
545.748	102
545.8	102
545.853	98
545.905	96
545.957	96
546.009	93
546.062	105
546.114	96
546.166	104
546.218	104
546.271	93
546.323	95
546.375	104
546.427	107
546.48	108
546.532	106
546.584	107
546.636	105
546.689	105
546.741	95
546.793	103
546.845	98
546.898	110
546.95	109
547.002	101
547.054	108
547.106	103
547.159	110
547.211	122
547.263	120
547.315	112
547.368	108
547.42	124
547.472	100
547.524	116
547.577	115
547.629	124
547.681	108
547.733	117
547.785	116
547.838	120
547.89	127
547.942	128
547.994	120
548.047	119
548.099	118
548.151	133
548.203	116
548.255	124
548.308	112
548.36	119
548.412	121
548.464	119
548.517	116
548.569	120
548.621	122
548.673	112
548.725	125
548.778	131
548.83	117
548.882	130
548.934	125
548.987	121
549.039	134
549.091	126
549.143	126
549.195	119
549.248	131
549.3	126
549.352	127
549.404	132
549.456	132
549.509	137
549.561	131
549.613	132
549.665	129
549.718	136
549.77	130
549.822	133
549.874	151
549.926	140
549.979	122
550.031	140
550.083	137
550.135	150
550.187	150
550.24	147
550.292	146
550.344	150
550.396	160
550.448	158
550.501	153
550.553	164
550.605	161
550.657	157
550.709	156
550.762	162
550.814	163
550.866	163
550.918	166
550.97	175
551.023	170
551.075	184
551.127	176
551.179	196
551.231	170
551.284	176
551.336	187
551.388	185
551.44	195
551.492	210
551.545	216
551.597	219
551.649	196
551.701	215
551.753	238
551.806	254
551.858	250
551.91	275
551.962	282
552.014	303
552.067	334
552.119	370
552.171	400
552.223	465
552.275	546
552.327	659
552.38	848
552.432	1319
552.484	2794
552.536	6391
552.588	12539
552.641	20675
552.693	30883
552.745	39401
552.797	24031
552.849	9062
552.901	3118
552.954	1492
553.006	959
553.058	707
553.11	573
553.162	474
553.215	428
553.267	386
553.319	348
553.371	329
553.423	292
553.475	289
553.528	268
553.58	266
553.632	248
553.684	245
553.736	231
553.788	241
553.841	220
553.893	226
553.945	231
553.997	204
554.049	202
554.102	214
554.154	191
554.206	206
554.258	196
554.31	203
554.362	190
554.414	209
554.467	198
554.519	200
554.571	189
554.623	188
554.675	205
554.727	195
554.78	196
554.832	195
554.884	188
554.936	189
554.988	200
555.04	198
555.093	180
555.145	177
555.197	193
555.249	196
555.301	197
555.353	196
555.406	185
555.458	201
555.51	198
555.562	198
555.614	189
555.666	195
555.719	214
555.771	201
555.823	194
555.875	203
555.927	198
555.979	201
556.031	194
556.084	211
556.136	193
556.188	186
556.24	210
556.292	193
556.344	206
556.396	201
556.449	211
556.501	209
556.553	197
556.605	199
556.657	211
556.709	208
556.762	211
556.814	212
556.866	208
556.918	210
556.97	203
557.022	215
557.074	231
557.127	212
557.179	209
557.231	217
557.283	222
557.335	214
557.387	225
557.439	221
557.492	222
557.544	213
557.596	230
557.648	203
557.7	235
557.752	221
557.804	228
557.856	235
557.909	231
557.961	223
558.013	221
558.065	229
558.117	228
558.169	232
558.221	219
558.273	226
558.326	230
558.378	228
558.43	211
558.482	228
558.534	232
558.586	224
558.638	226
558.691	239
558.743	226
558.795	239
558.847	234
558.899	234
558.951	251
559.003	233
559.055	238
559.108	236
559.16	236
559.212	246
559.264	239
559.316	238
559.368	247
559.42	248
559.472	247
559.525	255
559.577	246
559.629	237
559.681	239
559.733	242
559.785	246
559.837	240
559.889	250
559.941	269
559.994	247
560.046	251
560.098	245
560.15	256
560.202	260
560.254	255
560.306	268
560.358	255
560.41	262
560.463	260
560.515	268
560.567	281
560.619	255
560.671	272
560.723	286
560.775	288
560.827	278
560.879	277
560.932	272
560.984	273
561.036	286
561.088	284
561.14	283
561.192	279
561.244	283
561.296	292
561.348	299
561.4	292
561.453	307
561.505	283
561.557	278
561.609	284
561.661	291
561.713	298
561.765	295
561.817	313
561.869	293
561.921	299
561.974	295
562.026	291
562.078	309
562.13	293
562.182	307
562.234	303
562.286	311
562.338	316
562.39	316
562.442	304
562.494	338
562.547	305
562.599	298
562.651	309
562.703	314
562.755	332
562.807	311
562.859	311
562.911	332
562.963	326
563.015	328
563.067	327
563.12	335
563.172	323
563.224	341
563.276	336
563.328	333
563.38	349
563.432	344
563.484	347
563.536	352
563.588	343
563.64	360
563.692	353
563.744	354
563.797	342
563.849	361
563.901	343
563.953	367
564.005	375
564.057	368
564.109	376
564.161	386
564.213	368
564.265	391
564.317	367
564.369	387
564.421	384
564.474	381
564.526	354
564.578	373
564.63	381
564.682	392
564.734	375
564.786	373
564.838	376
564.89	370
564.942	375
564.994	386
565.046	376
565.098	365
565.15	384
565.202	398
565.255	396
565.307	385
565.359	379
565.411	387
565.463	386
565.515	385
565.567	401
565.619	392
565.671	394
565.723	380
565.775	382
565.827	388
565.879	389
565.931	413
565.983	391
566.035	415
566.087	396
566.139	398
566.192	415
566.244	410
566.296	418
566.348	416
566.4	416
566.452	415
566.504	397
566.556	430
566.608	434
566.66	417
566.712	419
566.764	405
566.816	429
566.868	431
566.92	428
566.972	421
567.024	413
567.076	442
567.128	395
567.18	434
567.232	432
567.285	426
567.337	439
567.389	432
567.441	439
567.493	450
567.545	450
567.597	459
567.649	446
567.701	440
567.753	440
567.805	473
567.857	433
567.909	454
567.961	443
568.013	452
568.065	474
568.117	454.98
568.169	450.96
568.221	456.858
568.273	460.807
568.325	463.359
568.377	465.876
568.429	463.261
568.481	476.425
568.533	484.094
568.585	469.141
568.637	472.944
568.69	486.685
568.742	489.101
568.794	465.796
568.846	493.861
568.898	483.125
568.95	485.404
569.002	474.742
569.054	492.048
569.106	485.113
569.158	491.08
569.21	493.623
569.262	490.354
569.314	506.706
569.366	504.893
569.418	491.157
569.47	504.332
569.522	486.334
569.574	511.38
569.626	505.825
569.678	525.357
569.73	591.931
569.782	572.48
569.834	520.398
569.886	528.756
569.938	524.956
569.99	534.773
570.042	524.355
570.094	532.723
570.146	536.592
570.198	534.897
570.25	538.026
570.302	538.405
570.354	541.714
570.406	546.78
570.458	548.565
570.51	543.116
570.562	565.562
570.614	558.652
570.666	568.509
570.718	579.729
570.77	570.323
570.822	569.198
570.874	585.9
570.926	572.001
570.978	579.933
571.03	586.954
571.082	587.538
571.134	595.196
571.186	599.795
571.238	607.513
571.29	609.695
571.342	620.372
571.394	627.774
571.446	633.551
571.498	632.978
571.55	654.919
571.602	650.012
571.654	658.3
571.706	650.003
571.758	675.958
571.81	679.041
571.862	674.829
571.914	683.1
571.966	685.155
572.018	681.953
572.07	697.575
572.122	704.85
572.174	705.946
572.226	705.978
572.278	721.882
572.33	739.316
572.382	743.074
572.434	758.415
572.486	736.776
572.538	749.172
572.59	773.422
572.642	765.945
572.694	754.419
572.746	759.766
572.798	793.368
572.85	819.511
572.902	805.15
572.954	815.651
573.006	820.922
573.058	845.502
573.11	844.695
573.162	859.555
573.214	852.159
573.266	848.042
573.312	889
573.364	894
573.416	918
573.469	933
573.521	932
573.573	960
573.625	955
573.677	1002
573.73	985
573.782	1021
573.834	1007
573.886	1050
573.938	1047
573.991	1087
574.043	1086
574.095	1089
574.147	1135
574.199	1138
574.252	1156
574.304	1181
574.356	1191
574.408	1211
574.46	1213
574.513	1265
574.565	1291
574.617	1320
574.669	1319
574.721	1335
574.774	1354
574.826	1407
574.878	1439
574.93	1440
574.982	1452
575.035	1487
575.087	1504
575.139	1528
575.191	1569
575.243	1603
575.296	1558
575.348	1586
575.4	1633
575.452	1682
575.504	1665
575.556	1646
575.609	1674
575.661	1722
575.713	1730
575.765	1708
575.817	1739
575.87	1747
575.922	1751
575.974	1743
576.026	1755
576.078	1758
576.131	1776
576.183	1767
576.235	1781
576.287	1773
576.339	1704
576.391	1726
576.444	1714
576.496	1716
576.548	1675
576.6	1689
576.652	1631
576.705	1654
576.757	1634
576.809	1608
576.861	1617
576.913	1626
576.965	1554
577.018	1609
577.07	1540
577.122	1522
577.174	1554
577.226	1511
577.279	1497
577.331	1454
577.383	1436
577.435	1469
577.487	1436
577.539	1370
577.592	1395
577.644	1370
577.696	1364
577.748	1361
577.8	1338
577.852	1305
577.905	1307
577.957	1283
578.009	1268
578.061	1252
578.113	1237
578.165	1269
578.218	1207
578.27	1217
578.322	1210
578.374	1197
578.426	1202
578.478	1188
578.531	1169
578.583	1204
578.635	1180
578.687	1153
578.739	1165
578.791	1128
578.844	1134
578.896	1137
578.948	1111
579	1154
579.052	1128
579.104	1122
579.157	1125
579.209	1128
579.261	1122
579.313	1091
579.365	1088
579.417	1097
579.47	1083
579.522	1113
579.574	1055
579.626	1125
579.678	1086
579.73	1084
579.782	1096
579.835	1104
579.887	1098
579.939	1081
579.991	1106
580.043	1104
580.095	1120
580.148	1110
580.2	1106
580.252	1097
580.304	1094
580.356	1078
580.408	1117
580.46	1102
580.513	1108
580.565	1107
580.617	1132
580.669	1099
580.721	1085
580.773	1125
580.826	1102
580.878	1116
580.93	1122
580.982	1131
581.034	1143
581.086	1112
581.138	1110
581.191	1133
581.243	1088
581.295	1112
581.347	1117
581.399	1158
581.451	1118
581.503	1140
581.556	1111
581.608	1165
581.66	1155
581.712	1116
581.764	1166
581.816	1127
581.868	1149
581.92	1150
581.973	1156
582.025	1131
582.077	1154
582.129	1179
582.181	1131
582.233	1123
582.285	1164
582.338	1144
582.39	1169
582.442	1138
582.494	1137
582.546	1141
582.598	1190
582.65	1143
582.703	1164
582.755	1169
582.807	1173
582.859	1223
582.911	1207
582.963	1171
583.015	1202
583.067	1201
583.12	1183
583.172	1220
583.224	1197
583.276	1197
583.328	1182
583.38	1228
583.432	1234
583.484	1254
583.537	1219
583.589	1205
583.641	1230
583.693	1271
583.745	1261
583.797	1247
583.849	1284
583.901	1253
583.953	1254
584.006	1272
584.058	1263
584.11	1294
584.162	1280
584.214	1274
584.266	1304
584.318	1290
584.37	1343
584.423	1304
584.475	1320
584.527	1327
584.579	1298
584.631	1320
584.683	1350
584.735	1332
584.787	1358
584.839	1355
584.892	1354
584.944	1372
584.996	1390
585.048	1379
585.1	1367
585.152	1408
585.204	1379
585.256	1382
585.308	1384
585.361	1400
585.413	1427
585.465	1378
585.517	1438
585.569	1451
585.621	1456
585.673	1401
585.725	1401
585.777	1428
585.83	1457
585.882	1442
585.934	1451
585.986	1441
586.038	1465
586.09	1478
586.142	1446
586.194	1477
586.246	1470
586.298	1476
586.351	1487
586.403	1493
586.455	1463
586.507	1475
586.559	1517
586.611	1469
586.663	1507
586.715	1505
586.767	1492
586.819	1499
586.872	1545
586.924	1517
586.976	1496
587.028	1525
587.08	1513
587.132	1488
587.184	1561
587.236	1566
587.288	1573
587.34	1525
587.392	1506
587.445	1525
587.497	1550
587.549	1573
587.601	1555
587.653	1565
587.705	1538
587.757	1531
587.809	1536
587.861	1562
587.913	1563
587.965	1529
588.018	1557
588.07	1628
588.122	1594
588.174	1585
588.226	1610
588.278	1594
588.33	1594
588.382	1553
588.434	1595
588.486	1586
588.538	1582
588.59	1561
588.642	1610
588.695	1575
588.747	1599
588.799	1613
588.851	1626
588.903	1606
588.955	1582
589.007	1599
589.059	1639
589.111	1591
589.163	1631
589.215	1660
589.267	1642
589.319	1631
589.372	1655
589.424	1627
589.476	1650
589.528	1664
589.58	1654
589.632	1677
589.684	1647
589.736	1655
589.788	1670
589.84	1644
589.892	1630
589.944	1639
589.996	1625
590.048	1650
590.101	1642
590.153	1637
590.205	1674
590.257	1636
590.309	1658
590.361	1626
590.413	1646
590.465	1624
590.517	1622
590.569	1620
590.621	1599
590.673	1605
590.725	1636
590.777	1640
590.829	1639
590.881	1619
590.933	1630
590.986	1626
591.038	1639
591.09	1590
591.142	1579
591.194	1627
591.246	1593
591.298	1601
591.35	1593
591.402	1601
591.454	1637
591.506	1589
591.558	1609
591.61	1584
591.662	1584
591.714	1596
591.766	1583
591.818	1611
591.87	1598
591.923	1564
591.975	1592
592.027	1518
592.079	1545
592.131	1590
592.183	1547
592.235	1550
592.287	1552
592.339	1567
592.391	1569
592.443	1585
592.495	1572
592.547	1574
592.599	1565
592.651	1569
592.703	1538
592.755	1551
592.807	1575
592.859	1559
592.911	1558
592.963	1582
593.015	1564
593.068	1560
593.12	1564
593.172	1554
593.224	1557
593.276	1558
593.328	1532
593.38	1496
593.432	1571
593.484	1592
593.536	1582
593.588	1561
593.64	1552
593.692	1603
593.744	1539
593.796	1531
593.848	1572
593.9	1571
593.952	1575
594.004	1545
594.056	1595
594.108	1565
594.16	1560
594.212	1559
594.264	1583
594.316	1573
594.368	1577
594.42	1595
594.472	1556
594.524	1580
594.576	1603
594.628	1581
594.68	1616
594.732	1624
594.784	1617
594.837	1592
594.889	1610
594.941	1621
594.993	1616
595.045	1589
595.097	1613
595.149	1586
595.201	1643
595.253	1636
595.305	1620
595.357	1604
595.409	1604
595.461	1600
595.513	1631
595.565	1652
595.617	1632
595.669	1637
595.721	1595
595.773	1662
595.825	1655
595.877	1639
595.929	1639
595.981	1667
596.033	1670
596.085	1677
596.137	1675
596.189	1659
596.241	1668
596.293	1669
596.345	1698
596.397	1708
596.449	1677
596.501	1711
596.553	1713
596.605	1728
596.657	1717
596.709	1779
