#Acq. time (s)=	3
#Accumulations=	2
#Range (nm)=	520...900
#Windows=	8
#Auto scanning=	Off
#Autofocus=	Off
#AutoExposure=	Off
#Spike filter=	Off
#Delay time (s)=	0
#Binning=	1
#Readout mode=	Signal
#DeNoise=	Off
#ICS correction=	Off
#Dark correction=	Off
#Inst. Process=	Off
#Detector temperature (°C)=	-59.98
#Instrument=	LabRAM HR Evol
#Detector=	Syncerity OE
#Objective=	x50_VIS
#Grating=	600 (500nm)
#ND Filter=	25%
#Laser=	514nm_Edge
#Hole=	199.981
#Range=	Visible
#StageXY=	Marzhauser
#StageZ=	Marzhauser
#X (µm)=	-9058.7
#Y (µm)=	-5026.8
#Z (µm)=	-261.6
#Full time(mm:ss)=	1:32
#Project=	
#Sample=	
#Site=	
#Title=	PL_M6_280424
#Remark=	
#Date=	06.05.2024 16:47
#Acquired=	06.05.2024 16:47:03
520.044	47
520.097	48
520.149	46
520.201	49
520.254	48
520.306	44
520.359	49
520.411	47
520.464	44
520.516	48
520.569	53
520.621	44
520.674	38
520.726	42
520.778	46
520.831	46
520.883	42
520.936	50
520.988	45
521.041	42
521.093	50
521.146	45
521.198	50
521.25	51
521.303	46
521.355	47
521.408	50
521.46	45
521.513	43
521.565	44
521.617	43
521.67	42
521.722	53
521.775	51
521.827	45
521.88	55
521.932	49
521.984	48
522.037	48
522.089	50
522.142	41
522.194	46
522.247	49
522.299	46
522.352	37
522.404	47
522.456	47
522.509	44
522.561	53
522.614	56
522.666	55
522.719	47
522.771	52
522.823	44
522.876	51
522.928	49
522.981	44
523.033	49
523.086	53
523.138	50
523.19	49
523.243	46
523.295	56
523.348	46
523.4	46
523.453	55
523.505	54
523.557	58
523.61	49
523.662	46
523.715	52
523.767	48
523.82	52
523.872	49
523.924	50
523.977	46
524.029	50
524.082	49
524.134	51
524.186	51
524.239	48
524.291	53
524.344	50
524.396	47
524.449	49
524.501	47
524.553	45
524.606	48
524.658	49
524.711	50
524.763	49
524.815	48
524.868	45
524.92	41
524.973	46
525.025	38
525.078	48
525.13	47
525.182	50
525.235	47
525.287	44
525.34	51
525.392	52
525.444	48
525.497	50
525.549	47
525.602	53
525.654	55
525.706	41
525.759	47
525.811	52
525.864	44
525.916	49
525.969	50
526.021	49
526.073	43
526.126	41
526.178	38
526.231	46
526.283	50
526.335	41
526.388	45
526.44	55
526.493	52
526.545	42
526.597	49
526.65	47
526.702	56
526.755	54
526.807	43
526.859	49
526.912	45
526.964	43
527.017	41
527.069	51
527.121	47
527.174	44
527.226	41
527.279	55
527.331	43
527.383	48
527.436	39
527.488	50
527.54	46
527.593	48
527.645	48
527.698	57
527.75	58
527.802	57
527.855	48
527.907	52
527.96	42
528.012	42
528.064	44
528.117	43
528.169	50
528.222	46
528.274	40
528.326	50
528.379	45
528.431	43
528.484	42
528.536	49
528.588	55
528.641	53
528.693	47
528.745	55
528.798	52
528.85	41
528.903	44
528.955	48
529.007	45
529.06	51
529.112	42
529.164	47
529.217	48
529.269	50
529.322	48
529.374	50
529.426	55
529.479	46
529.531	42
529.584	49
529.636	49
529.688	51
529.741	53
529.793	53
529.845	47
529.898	42
529.95	41
530.003	49
530.055	50
530.107	43
530.16	47
530.212	51
530.264	52
530.317	49
530.369	44
530.422	48
530.474	42
530.526	44
530.579	48
530.631	55
530.683	52
530.736	51
530.788	51
530.841	53
530.893	50
530.945	49
530.998	44
531.05	55
531.102	55
531.155	55
531.207	48
531.259	51
531.312	51
531.364	49
531.417	43
531.469	50
531.521	49
531.574	54
531.626	47
531.678	51
531.731	46
531.783	39
531.835	47
531.888	53
531.94	58
531.992	53
532.045	48
532.097	56
532.15	50
532.202	48
532.254	39
532.307	43
532.359	54
532.411	58
532.464	46
532.516	58
532.568	51
532.621	55
532.673	43
532.726	52
532.778	56
532.83	49
532.883	53
532.935	52
532.987	59
533.04	61
533.092	48
533.144	52
533.197	59
533.249	57
533.301	53
533.354	56
533.406	60
533.458	50
533.511	43
533.563	59
533.615	61
533.668	57
533.72	61
533.773	56
533.825	61
533.877	55
533.93	57
533.982	43
534.034	59
534.087	61
534.139	56
534.191	61
534.244	63
534.296	59
534.348	58
534.401	71
534.453	68
534.505	67
534.558	63
534.61	75
534.662	71
534.715	66
534.767	70
534.819	79
534.872	87
534.924	84
534.976	77
535.029	85
535.081	87
535.133	91
535.186	85
535.238	88
535.29	91
535.343	86
535.395	96
535.447	92
535.5	92
535.552	95
535.604	90
535.657	81
535.709	91
535.761	90
535.814	76
535.866	83
535.918	78
535.971	77
536.023	74
536.075	80
536.128	88
536.18	74
536.232	70
536.285	74
536.337	69
536.389	63
536.442	67
536.494	70
536.546	70
536.599	71
536.651	65
536.703	69
536.755	66
536.808	62
536.86	56
536.912	61
536.965	66
537.017	68
537.069	59
537.122	64
537.174	67
537.226	75
537.279	61
537.331	64
537.383	67
537.436	61
537.488	54
537.54	61
537.593	69
537.645	69
537.697	68
537.75	62
537.802	67
537.854	64
537.906	61
537.959	60
538.011	65
538.063	62
538.116	58
538.168	60
538.22	69
538.273	65
538.325	65
538.377	68
538.43	73
538.482	64
538.534	59
538.586	61
538.639	65
538.691	68
538.743	60
538.796	60
538.848	63
538.9	63
538.953	58
539.005	58
539.057	66
539.109	67
539.162	62
539.214	66
539.266	69
539.319	67
539.371	56
539.423	66
539.476	61
539.528	59
539.58	61
539.633	68
539.685	69
539.737	69
539.789	62
539.842	62
539.894	66
539.946	65
539.999	63
540.051	65
540.103	68
540.155	69
540.208	64
540.26	60
540.312	76
540.365	63
540.417	62
540.469	66
540.521	79
540.574	74
540.626	65
540.678	61
540.731	72
540.783	60
540.835	61
540.888	64
540.94	69
540.992	67
541.044	69
541.097	69
541.149	66
541.201	61
541.254	68
541.306	69
541.358	73
541.41	68
541.463	64
541.515	68
541.567	77
541.62	64
541.672	66
541.724	73
541.776	75
541.829	73
541.881	67
541.933	69
541.985	67
542.038	72
542.09	68
542.142	73
542.195	73
542.247	77
542.299	72
542.351	76
542.404	74
542.456	77
542.508	63
542.56	60
542.613	73
542.665	71
542.717	74
542.77	68
542.822	74
542.874	72
542.926	65
542.979	82
543.031	69
543.083	79
543.135	72
543.188	71
543.24	80
543.292	73
543.344	71
543.397	72
543.449	70
543.501	80
543.554	77
543.606	79
543.658	69
543.71	81
543.763	66
543.815	74
543.867	80
543.919	79
543.972	77
544.024	74
544.076	88
544.128	82
544.181	78
544.233	79
544.285	72
544.337	85
544.39	79
544.442	80
544.494	82
544.547	79
544.599	82
544.651	82
544.703	80
544.755	92
544.808	92
544.86	80
544.912	89
544.965	84
545.017	90
545.069	85
545.121	92
545.174	88
545.226	78
545.278	82
545.33	87
545.383	92
545.435	83
545.487	76
545.539	90
545.591	84
545.644	96
545.696	89
545.748	89
545.8	92
545.853	90
545.905	90
545.957	89
546.009	82
546.062	84
546.114	90
546.166	91
546.218	87
546.271	89
546.323	83
546.375	89
546.427	95
546.48	92
546.532	91
546.584	92
546.636	91
546.689	88
546.741	84
546.793	83
546.845	88
546.898	95
546.95	98
547.002	94
547.054	89
547.106	89
547.159	82
547.211	94
547.263	106
547.315	102
547.368	96
547.42	91
547.472	97
547.524	94
547.577	107
547.629	99
547.681	93
547.733	97
547.785	99
547.838	111
547.89	103
547.942	101
547.994	95
548.047	104
548.099	107
548.151	105
548.203	97
548.255	109
548.308	115
548.36	103
548.412	99
548.464	106
548.517	106
548.569	103
548.621	108
548.673	110
548.725	100
548.778	103
548.83	100
548.882	111
548.934	112
548.987	113
549.039	110
549.091	106
549.143	99
549.195	101
549.248	115
549.3	119
549.352	114
549.404	105
549.456	107
549.509	111
549.561	115
549.613	119
549.665	108
549.718	122
549.77	117
549.822	117
549.874	120
549.926	126
549.979	121
550.031	116
550.083	119
550.135	115
550.187	122
550.24	126
550.292	122
550.344	131
550.396	127
550.448	119
550.501	128
550.553	129
550.605	141
550.657	133
550.709	124
550.762	134
550.814	147
550.866	154
550.918	137
550.97	140
551.023	145
551.075	144
551.127	146
551.179	149
551.231	143
551.284	169
551.336	145
551.388	157
551.44	172
551.492	160
551.545	169
551.597	164
551.649	164
551.701	173
551.753	187
551.806	209
551.858	207
551.91	212
551.962	226
552.014	254
552.067	280
552.119	287
552.171	320
552.223	370
552.275	434
552.327	515
552.38	684
552.432	1040
552.484	2253
552.536	4764
552.588	8306
552.641	14005
552.693	22040
552.745	29167
552.797	21332
552.849	9179
552.901	3050
552.954	1345
553.006	814
553.058	588
553.11	449
553.162	378
553.215	332
553.267	282
553.319	269
553.371	237
553.423	220
553.475	227
553.528	207
553.58	202
553.632	190
553.684	179
553.736	190
553.788	193
553.841	187
553.893	172
553.945	170
553.997	165
554.049	175
554.102	172
554.154	172
554.206	160
554.258	164
554.31	170
554.362	161
554.414	155
554.467	159
554.519	175
554.571	160
554.623	162
554.675	156
554.727	162
554.78	159
554.832	158
554.884	157
554.936	156
554.988	156
555.04	173
555.093	156
555.145	154
555.197	167
555.249	171
555.301	156
555.353	171
555.406	159
555.458	162
555.51	160
555.562	159
555.614	162
555.666	153
555.719	156
555.771	159
555.823	159
555.875	155
555.927	155
555.979	155
556.031	170
556.084	171
556.136	162
556.188	171
556.24	160
556.292	170
556.344	167
556.396	167
556.449	172
556.501	188
556.553	163
556.605	159
556.657	176
556.709	173
556.762	175
556.814	186
556.866	181
556.918	178
556.97	169
557.022	166
557.074	182
557.127	170
557.179	176
557.231	178
557.283	179
557.335	178
557.387	170
557.439	187
557.492	183
557.544	194
557.596	179
557.648	186
557.7	184
557.752	169
557.804	189
557.856	190
557.909	184
557.961	180
558.013	173
558.065	190
558.117	194
558.169	178
558.221	176
558.273	187
558.326	205
558.378	196
558.43	184
558.482	196
558.534	189
558.586	189
558.638	193
558.691	183
558.743	193
558.795	190
558.847	198
558.899	194
558.951	205
559.003	192
559.055	197
559.108	202
559.16	195
559.212	199
559.264	197
559.316	180
559.368	193
559.42	190
559.472	203
559.525	212
559.577	200
559.629	211
559.681	212
559.733	192
559.785	203
559.837	203
559.889	206
559.941	212
559.994	201
560.046	211
560.098	198
560.15	211
560.202	202
560.254	219
560.306	219
560.358	205
560.41	211
560.463	227
560.515	220
560.567	218
560.619	215
560.671	226
560.723	217
560.775	221
560.827	224
560.879	216
560.932	212
560.984	210
561.036	219
561.088	229
561.14	210
561.192	220
561.244	228
561.296	227
561.348	236
561.4	225
561.453	241
561.505	225
561.557	217
561.609	223
561.661	237
561.713	250
561.765	248
561.817	243
561.869	234
561.921	242
561.974	235
562.026	250
562.078	251
562.13	246
562.182	250
562.234	246
562.286	238
562.338	247
562.39	247
562.442	244
562.494	263
562.547	249
562.599	254
562.651	237
562.703	272
562.755	249
562.807	259
562.859	271
562.911	262
562.963	265
563.015	276
563.067	268
563.12	269
563.172	270
563.224	284
563.276	270
563.328	284
563.38	280
563.432	277
563.484	279
563.536	298
563.588	294
563.64	302
563.692	297
563.744	305
563.797	302
563.849	311
563.901	316
563.953	325
564.005	337
564.057	326
564.109	309
564.161	344
564.213	344
564.265	349
564.317	338
564.369	330
564.421	322
564.474	318
564.526	329
564.578	325
564.63	321
564.682	329
564.734	310
564.786	319
564.838	326
564.89	327
564.942	321
564.994	317
565.046	318
565.098	307
565.15	299
565.202	309
565.255	322
565.307	313
565.359	310
565.411	312
565.463	306
565.515	320
565.567	323
565.619	302
565.671	320
565.723	311
565.775	322
565.827	308
565.879	316
565.931	328
565.983	338
566.035	346
566.087	324
566.139	319
566.192	307
566.244	313
566.296	317
566.348	335
566.4	334
566.452	330
566.504	347
566.556	337
566.608	336
566.66	331
566.712	331
566.764	345
566.816	340
566.868	338
566.92	330
566.972	355
567.024	341
567.076	342
567.128	340
567.18	339
567.232	349
567.285	369
567.337	360
567.389	350
567.441	351
567.493	353
567.545	362
567.597	367
567.649	348
567.701	362
567.753	357
567.805	347
567.857	358
567.909	364
567.961	364
568.013	370
568.065	352
568.117	366.975
568.169	370.745
568.221	367.541
568.273	356.008
568.325	365.754
568.377	375.346
568.429	355.813
568.481	369.517
568.533	371.537
568.585	382.479
568.637	390.903
568.69	382.983
568.742	390.434
568.794	397.564
568.846	378.744
568.898	386.361
568.95	390.84
569.002	386.462
569.054	390.437
569.106	393.568
569.158	372.914
569.21	394.621
569.262	394.978
569.314	381.412
569.366	396.089
569.418	382.508
569.47	393.111
569.522	405.969
569.574	404.15
569.626	389.241
569.678	397.118
569.73	406.51
569.782	420.793
569.834	417.224
569.886	411.176
569.938	409.446
569.99	419.611
570.042	413.547
570.094	430.899
570.146	411.884
570.198	429.734
570.25	423.597
570.302	430.92
570.354	426.263
570.406	420.111
570.458	444.36
570.51	437.712
570.562	443.816
570.614	450.216
570.666	452.708
570.718	446.691
570.77	451.399
570.822	447.623
570.874	450.2
570.926	455.527
570.978	455.34
571.03	479.672
571.082	472.843
571.134	471.475
571.186	474.436
571.238	474.853
571.29	484.042
571.342	482.474
571.394	486.123
571.446	492.201
571.498	491.658
571.55	495.204
571.602	495.528
571.654	509.021
571.706	510.2
571.758	515.619
571.81	533.124
571.862	532.277
571.914	525.12
571.966	533.481
572.018	536.5
572.07	538.214
572.122	529.923
572.174	546.881
572.226	548.633
572.278	560.985
572.33	552.578
572.382	567.537
572.434	586.246
572.486	584.242
572.538	580.546
572.59	587.352
572.642	574.109
572.694	604.822
572.746	609.265
572.798	593.89
572.85	629.854
572.902	626.719
572.954	624.598
573.006	635.245
573.058	644.369
573.11	666.391
573.162	656.56
573.214	648.104
573.266	682.969
573.312	674
573.364	677
573.416	705
573.469	712
573.521	723
573.573	754
573.625	720
573.677	741
573.73	741
573.782	758
573.834	801
573.886	769
573.938	805
573.991	811
574.043	824
574.095	856
574.147	859
574.199	864
574.252	874
574.304	865
574.356	910
574.408	925
574.46	930
574.513	933
574.565	959
574.617	976
574.669	1003
574.721	1036
574.774	1011
574.826	1032
574.878	1054
574.93	1072
574.982	1119
575.035	1113
575.087	1148
575.139	1174
575.191	1155
575.243	1155
575.296	1212
575.348	1234
575.4	1224
575.452	1286
575.504	1235
575.556	1286
575.609	1284
575.661	1317
575.713	1298
575.765	1293
575.817	1297
575.87	1308
575.922	1339
575.974	1333
576.026	1334
576.078	1338
576.131	1361
576.183	1381
576.235	1325
576.287	1345
576.339	1335
576.391	1372
576.444	1333
576.496	1362
576.548	1341
576.6	1333
576.652	1331
576.705	1303
576.757	1298
576.809	1280
576.861	1274
576.913	1261
576.965	1232
577.018	1238
577.07	1222
577.122	1201
577.174	1188
577.226	1192
577.279	1163
577.331	1155
577.383	1149
577.435	1137
577.487	1148
577.539	1100
577.592	1087
577.644	1080
577.696	1082
577.748	1077
577.8	1044
577.852	1036
577.905	1038
577.957	1039
578.009	1028
578.061	986
578.113	1000
578.165	989
578.218	965
578.27	981
578.322	940
578.374	963
578.426	942
578.478	955
578.531	951
578.583	942
578.635	881
578.687	938
578.739	905
578.791	903
578.844	923
578.896	923
578.948	920
579	895
579.052	912
579.104	916
579.157	907
579.209	888
579.261	884
579.313	887
579.365	876
579.417	884
579.47	873
579.522	902
579.574	880
579.626	913
579.678	891
579.73	882
579.782	896
579.835	906
579.887	896
579.939	884
579.991	885
580.043	881
580.095	890
580.148	884
580.2	892
580.252	886
580.304	894
580.356	893
580.408	860
580.46	906
580.513	878
580.565	863
580.617	895
580.669	860
580.721	865
580.773	885
580.826	886
580.878	849
580.93	891
580.982	864
581.034	881
581.086	876
581.138	861
581.191	881
581.243	884
581.295	874
581.347	880
581.399	887
581.451	896
581.503	894
581.556	879
581.608	897
581.66	891
581.712	901
581.764	879
581.816	874
581.868	931
581.92	909
581.973	887
582.025	904
582.077	912
582.129	904
582.181	888
582.233	904
582.285	915
582.338	905
582.39	918
582.442	932
582.494	927
582.546	901
582.598	937
582.65	913
582.703	927
582.755	931
582.807	930
582.859	940
582.911	954
582.963	940
583.015	942
583.067	931
583.12	944
583.172	943
583.224	940
583.276	953
583.328	981
583.38	963
583.432	962
583.484	960
583.537	936
583.589	984
583.641	978
583.693	989
583.745	968
583.797	974
583.849	978
583.901	999
583.953	985
584.006	991
584.058	1006
584.11	1017
584.162	996
584.214	1013
584.266	1034
584.318	1026
584.37	999
584.423	1018
584.475	1021
584.527	1053
584.579	1069
584.631	1045
584.683	1020
584.735	1055
584.787	1020
584.839	1053
584.892	1090
584.944	1038
584.996	1096
585.048	1092
585.1	1086
585.152	1059
585.204	1075
585.256	1093
585.308	1098
585.361	1105
585.413	1104
585.465	1106
585.517	1097
585.569	1099
585.621	1092
585.673	1105
585.725	1134
585.777	1121
585.83	1119
585.882	1087
585.934	1129
585.986	1114
586.038	1116
586.09	1127
586.142	1153
586.194	1165
586.246	1149
586.298	1172
586.351	1149
586.403	1174
586.455	1178
586.507	1156
586.559	1159
586.611	1161
586.663	1161
586.715	1168
586.767	1151
586.819	1174
586.872	1186
586.924	1203
586.976	1175
587.028	1196
587.08	1207
587.132	1185
587.184	1203
587.236	1209
587.288	1230
587.34	1200
587.392	1195
587.445	1207
587.497	1195
587.549	1254
587.601	1195
587.653	1229
587.705	1219
587.757	1225
587.809	1203
587.861	1240
587.913	1215
587.965	1223
588.018	1222
588.07	1219
588.122	1218
588.174	1256
588.226	1234
588.278	1230
588.33	1215
588.382	1230
588.434	1220
588.486	1254
588.538	1250
588.59	1236
588.642	1243
588.695	1237
588.747	1228
588.799	1212
588.851	1262
588.903	1249
588.955	1261
589.007	1243
589.059	1260
589.111	1298
589.163	1247
589.215	1301
589.267	1297
589.319	1282
589.372	1301
589.424	1305
589.476	1314
589.528	1305
589.58	1308
589.632	1297
589.684	1347
589.736	1291
589.788	1322
589.84	1266
589.892	1322
589.944	1269
589.996	1286
590.048	1308
590.101	1313
590.153	1297
590.205	1294
590.257	1298
590.309	1307
590.361	1286
590.413	1277
590.465	1321
590.517	1316
590.569	1269
590.621	1265
590.673	1296
590.725	1331
590.777	1275
590.829	1274
590.881	1267
590.933	1314
590.986	1300
591.038	1272
591.09	1272
591.142	1268
591.194	1251
591.246	1281
591.298	1292
591.35	1256
591.402	1263
591.454	1243
591.506	1257
591.558	1243
591.61	1259
591.662	1259
591.714	1259
591.766	1289
591.818	1277
591.87	1261
591.923	1244
591.975	1224
592.027	1234
592.079	1246
592.131	1218
592.183	1220
592.235	1228
592.287	1248
592.339	1225
592.391	1251
592.443	1240
592.495	1238
592.547	1233
592.599	1257
592.651	1254
592.703	1240
592.755	1253
592.807	1250
592.859	1228
592.911	1236
592.963	1211
593.015	1216
593.068	1233
593.12	1224
593.172	1235
593.224	1247
593.276	1225
593.328	1256
593.38	1222
593.432	1248
593.484	1209
593.536	1263
593.588	1225
593.64	1205
593.692	1232
593.744	1223
593.796	1240
593.848	1233
593.9	1257
593.952	1235
594.004	1211
594.056	1255
594.108	1237
594.16	1225
594.212	1253
594.264	1277
594.316	1224
594.368	1274
594.42	1278
594.472	1263
594.524	1233
594.576	1264
594.628	1269
594.68	1239
594.732	1250
594.784	1256
594.837	1275
594.889	1262
594.941	1250
594.993	1256
595.045	1272
595.097	1303
595.149	1259
595.201	1256
595.253	1254
595.305	1262
595.357	1265
595.409	1288
595.461	1284
595.513	1250
595.565	1303
595.617	1301
595.669	1315
595.721	1299
595.773	1328
595.825	1300
595.877	1306
595.929	1341
595.981	1282
596.033	1329
596.085	1321
596.137	1329
596.189	1329
596.241	1328
596.293	1321
596.345	1327
596.397	1323
596.449	1365
596.501	1341
596.553	1403
596.605	1385
596.657	1380
596.709	1378
596.761	1393
596.813	1382
596.865	1411
596.917	1394
596.969	1388
597.021	1365
597.073	1378
597.125	1364
597.177	1368
597.229	1382
597.281	1356
597.333	1371
597.385	1376
