#Acq. time (s)=	3
#Accumulations=	2
#Range (nm)=	520...900
#Windows=	8
#Auto scanning=	Off
#Autofocus=	Off
#AutoExposure=	Off
#Spike filter=	Multiple accum.
#Delay time (s)=	0
#Binning=	1
#Readout mode=	Signal
#DeNoise=	Off
#ICS correction=	Off
#Dark correction=	Off
#Inst. Process=	Off
#Detector temperature (°C)=	-59.98
#Instrument=	LabRAM HR Evol
#Detector=	Syncerity OE
#Objective=	x50_VIS
#Grating=	600 (500nm)
#ND Filter=	25%
#Laser=	514nm_Edge
#Hole=	199.981
#Range=	Auto
#StageXY=	Marzhauser
#StageZ=	Marzhauser
#X (µm)=	-51.3
#Y (µm)=	6302
#Z (µm)=	-7
#Full time(mm:ss)=	1:32
#Project=	
#Sample=	
#Site=	
#Title=	PL_M4_180324
#Remark=	
#Date=	28.03.2024 09:20
#Acquired=	28.03.2024 09:20:04
520.044	36
520.097	36
520.149	40
520.201	44
520.254	40
520.306	38
520.359	38
520.411	38
520.464	36
520.516	34
520.569	40
520.621	40
520.674	34
520.726	46
520.778	40
520.831	34
520.883	28
520.936	42
520.988	44
521.041	40
521.093	42
521.146	42
521.198	44
521.25	38
521.303	40
521.355	44
521.408	40
521.46	38
521.513	36
521.565	42
521.617	40
521.67	42
521.722	36
521.775	44
521.827	44
521.88	46
521.932	30
521.984	48
522.037	42
522.089	44
522.142	32
522.194	42
522.247	48
522.299	36
522.352	34
522.404	42
522.456	36
522.509	40
522.561	34
522.614	46
522.666	40
522.719	38
522.771	40
522.823	50
522.876	48
522.928	40
522.981	34
523.033	40
523.086	46
523.138	42
523.19	34
523.243	38
523.295	48
523.348	46
523.4	38
523.453	40
523.505	46
523.557	40
523.61	40
523.662	44
523.715	46
523.767	40
523.82	38
523.872	34
523.924	42
523.977	42
524.029	36
524.082	48
524.134	42
524.186	34
524.239	34
524.291	36
524.344	46
524.396	44
524.449	46
524.501	54
524.553	42
524.606	46
524.658	36
524.711	48
524.763	46
524.815	46
524.868	36
524.92	42
524.973	40
525.025	42
525.078	36
525.13	40
525.182	48
525.235	44
525.287	36
525.34	48
525.392	36
525.444	38
525.497	36
525.549	42
525.602	46
525.654	32
525.706	36
525.759	52
525.811	46
525.864	30
525.916	38
525.969	40
526.021	38
526.073	38
526.126	42
526.178	46
526.231	42
526.283	32
526.335	46
526.388	46
526.44	46
526.493	44
526.545	34
526.597	52
526.65	44
526.702	30
526.755	38
526.807	34
526.859	50
526.912	34
526.964	38
527.017	44
527.069	50
527.121	34
527.174	42
527.226	46
527.279	50
527.331	44
527.383	34
527.436	56
527.488	48
527.54	40
527.593	40
527.645	42
527.698	52
527.75	44
527.802	40
527.855	52
527.907	42
527.96	46
528.012	38
528.064	44
528.117	48
528.169	44
528.222	38
528.274	46
528.326	42
528.379	48
528.431	48
528.484	46
528.536	48
528.588	40
528.641	36
528.693	50
528.745	50
528.798	40
528.85	38
528.903	48
528.955	46
529.007	46
529.06	38
529.112	46
529.164	44
529.217	44
529.269	38
529.322	42
529.374	44
529.426	46
529.479	38
529.531	44
529.584	46
529.636	44
529.688	42
529.741	44
529.793	42
529.845	44
529.898	38
529.95	46
530.003	54
530.055	46
530.107	38
530.16	42
530.212	44
530.264	48
530.317	44
530.369	50
530.422	48
530.474	42
530.526	32
530.579	40
530.631	50
530.683	40
530.736	34
530.788	48
530.841	50
530.893	40
530.945	42
530.998	46
531.05	48
531.102	50
531.155	36
531.207	54
531.259	46
531.312	48
531.364	48
531.417	48
531.469	52
531.521	34
531.574	42
531.626	60
531.678	44
531.731	50
531.783	38
531.835	52
531.888	52
531.94	40
531.992	36
532.045	46
532.097	54
532.15	50
532.202	38
532.254	42
532.307	46
532.359	44
532.411	34
532.464	50
532.516	42
532.568	50
532.621	48
532.673	56
532.726	48
532.778	50
532.83	50
532.883	50
532.935	48
532.987	48
533.04	40
533.092	48
533.144	44
533.197	42
533.249	44
533.301	52
533.354	48
533.406	52
533.458	46
533.511	46
533.563	54
533.615	44
533.668	42
533.72	58
533.773	52
533.825	56
533.877	46
533.93	44
533.982	52
534.034	58
534.087	40
534.139	46
534.191	54
534.244	64
534.296	42
534.348	56
534.401	48
534.453	54
534.505	52
534.558	64
534.61	48
534.662	64
534.715	54
534.767	66
534.819	64
534.872	64
534.924	60
534.976	64
535.029	58
535.081	58
535.133	58
535.186	66
535.238	72
535.29	58
535.343	62
535.395	58
535.447	64
535.5	78
535.552	62
535.604	64
535.657	58
535.709	72
535.761	52
535.814	62
535.866	60
535.918	62
535.971	56
536.023	60
536.075	70
536.128	56
536.18	44
536.232	64
536.285	60
536.337	58
536.389	50
536.442	48
536.494	60
536.546	58
536.599	54
536.651	58
536.703	56
536.755	62
536.808	54
536.86	52
536.912	58
536.965	58
537.017	56
537.069	60
537.122	56
537.174	62
537.226	48
537.279	58
537.331	54
537.383	56
537.436	58
537.488	60
537.54	60
537.593	58
537.645	46
537.697	60
537.75	60
537.802	60
537.854	58
537.906	70
537.959	64
538.011	54
538.063	50
538.116	54
538.168	52
538.22	54
538.273	46
538.325	56
538.377	54
538.43	60
538.482	56
538.534	56
538.586	60
538.639	52
538.691	54
538.743	64
538.796	56
538.848	56
538.9	54
538.953	60
539.005	60
539.057	60
539.109	44
539.162	70
539.214	62
539.266	62
539.319	48
539.371	64
539.423	66
539.476	62
539.528	56
539.58	72
539.633	60
539.685	72
539.737	46
539.789	52
539.842	68
539.894	64
539.946	58
539.999	68
540.051	72
540.103	68
540.155	66
540.208	64
540.26	62
540.312	64
540.365	52
540.417	66
540.469	72
540.521	64
540.574	64
540.626	58
540.678	66
540.731	64
540.783	52
540.835	58
540.888	70
540.94	70
540.992	58
541.044	66
541.097	68
541.149	64
541.201	54
541.254	82
541.306	68
541.358	66
541.41	60
541.463	76
541.515	66
541.567	72
541.62	70
541.672	62
541.724	60
541.776	74
541.829	64
541.881	72
541.933	70
541.985	66
542.038	60
542.09	66
542.142	68
542.195	72
542.247	70
542.299	72
542.351	64
542.404	64
542.456	62
542.508	70
542.56	78
542.613	72
542.665	68
542.717	66
542.77	76
542.822	68
542.874	68
542.926	86
542.979	64
543.031	78
543.083	64
543.135	74
543.188	60
543.24	82
543.292	66
543.344	80
543.397	72
543.449	70
543.501	70
543.554	84
543.606	84
543.658	80
543.71	70
543.763	72
543.815	74
543.867	84
543.919	68
543.972	68
544.024	76
544.076	82
544.128	68
544.181	90
544.233	70
544.285	86
544.337	72
544.39	78
544.442	72
544.494	86
544.547	58
544.599	82
544.651	82
544.703	82
544.755	80
544.808	78
544.86	86
544.912	70
544.965	78
545.017	90
545.069	82
545.121	88
545.174	84
545.226	84
545.278	84
545.33	88
545.383	78
545.435	86
545.487	74
545.539	90
545.591	76
545.644	96
545.696	78
545.748	80
545.8	76
545.853	88
545.905	94
545.957	90
546.009	82
546.062	84
546.114	80
546.166	90
546.218	82
546.271	90
546.323	92
546.375	84
546.427	82
546.48	84
546.532	94
546.584	96
546.636	88
546.689	94
546.741	96
546.793	102
546.845	88
546.898	98
546.95	92
547.002	100
547.054	86
547.106	100
547.159	96
547.211	110
547.263	86
547.315	96
547.368	106
547.42	104
547.472	106
547.524	98
547.577	100
547.629	104
547.681	92
547.733	94
547.785	100
547.838	104
547.89	96
547.942	98
547.994	104
548.047	106
548.099	92
548.151	106
548.203	104
548.255	116
548.308	108
548.36	112
548.412	104
548.464	114
548.517	98
548.569	98
548.621	106
548.673	104
548.725	102
548.778	110
548.83	100
548.882	112
548.934	106
548.987	94
549.039	116
549.091	116
549.143	100
549.195	112
549.248	114
549.3	118
549.352	102
549.404	108
549.456	124
549.509	108
549.561	112
549.613	116
549.665	116
549.718	124
549.77	110
549.822	120
549.874	114
549.926	124
549.979	118
550.031	122
550.083	122
550.135	130
550.187	124
550.24	134
550.292	134
550.344	134
550.396	120
550.448	122
550.501	132
550.553	126
550.605	142
550.657	124
550.709	126
550.762	144
550.814	130
550.866	136
550.918	130
550.97	162
551.023	146
551.075	156
551.127	148
551.179	160
551.231	160
551.284	168
551.336	158
551.388	176
551.44	170
551.492	178
551.545	180
551.597	194
551.649	192
551.701	190
551.753	204
551.806	220
551.858	220
551.91	228
551.962	244
552.014	276
552.067	272
552.119	322
552.171	344
552.223	420
552.275	452
552.327	612
552.38	806
552.432	1598
552.484	3298
552.536	6390
552.588	12122
552.641	22892
552.693	32090
552.745	22358
552.797	10530
552.849	3746
552.901	1496
552.954	902
553.006	656
553.058	504
553.11	404
553.162	352
553.215	318
553.267	284
553.319	278
553.371	240
553.423	226
553.475	216
553.528	214
553.58	210
553.632	202
553.684	188
553.736	180
553.788	184
553.841	182
553.893	180
553.945	170
553.997	178
554.049	186
554.102	170
554.154	168
554.206	166
554.258	174
554.31	176
554.362	174
554.414	158
554.467	178
554.519	162
554.571	166
554.623	166
554.675	168
554.727	176
554.78	168
554.832	166
554.884	164
554.936	160
554.988	152
555.04	156
555.093	182
555.145	184
555.197	160
555.249	166
555.301	164
555.353	176
555.406	168
555.458	158
555.51	168
555.562	160
555.614	164
555.666	172
555.719	158
555.771	176
555.823	164
555.875	166
555.927	164
555.979	172
556.031	164
556.084	166
556.136	178
556.188	170
556.24	176
556.292	174
556.344	184
556.396	182
556.449	166
556.501	180
556.553	172
556.605	180
556.657	182
556.709	164
556.762	178
556.814	186
556.866	180
556.918	180
556.97	196
557.022	188
557.074	196
557.127	172
557.179	188
557.231	216
557.283	186
557.335	198
557.387	196
557.439	202
557.492	190
557.544	202
557.596	198
557.648	200
557.7	198
557.752	194
557.804	218
557.856	198
557.909	196
557.961	184
558.013	190
558.065	198
558.117	210
558.169	206
558.221	200
558.273	194
558.326	190
558.378	190
558.43	222
558.482	198
558.534	200
558.586	200
558.638	206
558.691	206
558.743	202
558.795	210
558.847	192
558.899	204
558.951	204
559.003	204
559.055	226
559.108	224
559.16	194
559.212	186
559.264	218
559.316	208
559.368	198
559.42	208
559.472	220
559.525	202
559.577	210
559.629	192
559.681	230
559.733	210
559.785	220
559.837	230
559.889	216
559.941	224
559.994	200
560.046	204
560.098	212
560.15	208
560.202	214
560.254	236
560.306	226
560.358	212
560.41	228
560.463	238
560.515	258
560.567	242
560.619	242
560.671	244
560.723	240
560.775	244
560.827	226
560.879	226
560.932	240
560.984	220
561.036	228
561.088	214
561.14	242
561.192	260
561.244	238
561.296	240
561.348	246
561.4	234
561.453	258
561.505	254
561.557	256
561.609	256
561.661	244
561.713	238
561.765	242
561.817	256
561.869	256
561.921	254
561.974	258
562.026	264
562.078	258
562.13	254
562.182	268
562.234	270
562.286	264
562.338	276
562.39	278
562.442	272
562.494	254
562.547	276
562.599	268
562.651	270
562.703	262
562.755	286
562.807	292
562.859	292
562.911	296
562.963	288
563.015	284
563.067	286
563.12	286
563.172	288
563.224	286
563.276	274
563.328	290
563.38	310
563.432	300
563.484	304
563.536	286
563.588	314
563.64	310
563.692	318
563.744	310
563.797	310
563.849	334
563.901	314
563.953	336
564.005	324
564.057	352
564.109	332
564.161	324
564.213	330
564.265	344
564.317	340
564.369	314
564.421	320
564.474	340
564.526	342
564.578	328
564.63	340
564.682	344
564.734	336
564.786	330
564.838	332
564.89	336
564.942	336
564.994	326
565.046	310
565.098	330
565.15	344
565.202	316
565.255	338
565.307	340
565.359	334
565.411	324
565.463	348
565.515	342
565.567	334
565.619	326
565.671	318
565.723	338
565.775	306
565.827	342
565.879	342
565.931	328
565.983	348
566.035	348
566.087	340
566.139	366
566.192	332
566.244	356
566.296	336
566.348	370
566.4	358
566.452	348
566.504	342
566.556	348
566.608	350
566.66	386
566.712	358
566.764	356
566.816	374
566.868	380
566.92	364
566.972	366
567.024	372
567.076	366
567.128	366
567.18	390
567.232	384
567.285	386
567.337	356
567.389	398
567.441	384
567.493	360
567.545	380
567.597	392
567.649	380
567.701	368
567.753	380
567.805	394
567.857	392
567.909	382
567.961	396
568.013	404
568.065	388
568.117	417.74
568.169	376.123
568.221	419.553
568.273	391.793
568.325	403.035
568.377	414.219
568.429	405.19
568.481	388.805
568.533	403.588
568.585	402.282
568.637	436.648
568.69	420.878
568.742	415.25
568.794	409.057
568.846	425.315
568.898	427.307
568.95	418.176
569.002	420.228
569.054	422.75
569.106	417.926
569.158	422.77
569.21	427.615
569.262	444.735
569.314	419.717
569.366	428.925
569.418	424.838
569.47	415.929
569.522	431.045
569.574	452.837
569.626	427.672
569.678	431.889
569.73	450.363
569.782	438.507
569.834	456.758
569.886	456.684
569.938	451.635
569.99	456.729
570.042	443.054
570.094	451.509
570.146	463.281
570.198	465.263
570.25	459.076
570.302	471.589
570.354	467.878
570.406	471.261
570.458	480.09
570.51	486.942
570.562	486.426
570.614	478.744
570.666	482.741
570.718	499.598
570.77	494.694
570.822	493.874
570.874	503.07
570.926	519.973
570.978	520.353
571.03	506.35
571.082	517.3
571.134	517.841
571.186	519.402
571.238	527.467
571.29	527.085
571.342	551.557
571.394	546.312
571.446	544.916
571.498	548.162
571.55	552.968
571.602	566.356
571.654	561.752
571.706	565.15
571.758	572.418
571.81	565.918
571.862	572.65
571.914	573.611
571.966	615.255
572.018	595.096
572.07	607.139
572.122	593.416
572.174	609.081
572.226	635.902
572.278	633.807
572.33	631.359
572.382	647.716
572.434	641.547
572.486	663.917
572.538	638.918
572.59	672.715
572.642	683.202
572.694	687.768
572.746	680.831
572.798	707.612
572.85	689.873
572.902	691.185
572.954	724.267
573.006	745.45
573.058	733.945
573.11	741.579
573.162	753.675
573.214	783.315
573.266	776.735
573.312	810
573.364	806
573.416	822
573.469	828
573.521	826
573.573	860
573.625	862
573.677	894
573.73	886
573.782	898
573.834	902
573.886	892
573.938	928
573.991	976
574.043	978
574.095	990
574.147	1012
574.199	1028
574.252	1018
574.304	1042
574.356	1056
574.408	1074
574.46	1120
574.513	1124
574.565	1102
574.617	1126
574.669	1192
574.721	1182
574.774	1220
574.826	1192
574.878	1288
574.93	1260
574.982	1280
575.035	1332
575.087	1328
575.139	1356
575.191	1362
575.243	1328
575.296	1368
575.348	1406
575.4	1386
575.452	1382
575.504	1426
575.556	1432
575.609	1416
575.661	1470
575.713	1438
575.765	1478
575.817	1464
575.87	1430
575.922	1472
575.974	1442
576.026	1442
576.078	1452
576.131	1450
576.183	1440
576.235	1480
576.287	1436
576.339	1428
576.391	1436
576.444	1442
576.496	1428
576.548	1378
576.6	1382
576.652	1370
576.705	1378
576.757	1324
576.809	1340
576.861	1348
576.913	1314
576.965	1296
577.018	1268
577.07	1260
577.122	1232
577.174	1248
577.226	1254
577.279	1238
577.331	1202
577.383	1220
577.435	1198
577.487	1164
577.539	1116
577.592	1100
577.644	1144
577.696	1122
577.748	1052
577.8	1102
577.852	1078
577.905	1100
577.957	1084
578.009	1046
578.061	1060
578.113	1012
578.165	1060
578.218	1012
578.27	1054
578.322	1042
578.374	1018
578.426	1026
578.478	996
578.531	970
578.583	966
578.635	970
578.687	940
578.739	1006
578.791	948
578.844	988
578.896	976
578.948	962
579	948
579.052	956
579.104	958
579.157	950
579.209	946
579.261	924
579.313	968
579.365	946
579.417	950
579.47	934
579.522	940
579.574	940
579.626	944
579.678	958
579.73	938
579.782	944
579.835	954
579.887	916
579.939	950
579.991	966
580.043	938
580.095	930
580.148	956
580.2	940
580.252	948
580.304	948
580.356	952
580.408	928
580.46	948
580.513	962
580.565	928
580.617	940
580.669	932
580.721	956
580.773	916
580.826	938
580.878	954
580.93	948
580.982	940
581.034	962
581.086	950
581.138	952
581.191	964
581.243	922
581.295	940
581.347	954
581.399	938
581.451	986
581.503	956
581.556	962
581.608	942
581.66	1006
581.712	964
581.764	958
581.816	966
581.868	978
581.92	966
581.973	988
582.025	972
582.077	976
582.129	972
582.181	982
582.233	982
582.285	986
582.338	980
582.39	964
582.442	984
582.494	964
582.546	986
582.598	974
582.65	1000
582.703	1004
582.755	1016
582.807	1066
582.859	1004
582.911	988
582.963	1024
583.015	1002
583.067	1028
583.12	998
583.172	1014
583.224	1052
583.276	1054
583.328	1012
583.38	1022
583.432	1058
583.484	1052
583.537	1032
583.589	1048
583.641	1030
583.693	1080
583.745	1058
583.797	1064
583.849	1052
583.901	1072
583.953	1068
584.006	1090
584.058	1114
584.11	1080
584.162	1112
584.214	1094
584.266	1100
584.318	1090
584.37	1134
584.423	1124
584.475	1126
584.527	1126
584.579	1136
584.631	1112
584.683	1144
584.735	1120
584.787	1126
584.839	1180
584.892	1150
584.944	1182
584.996	1142
585.048	1158
585.1	1164
585.152	1192
585.204	1150
585.256	1194
585.308	1188
585.361	1164
585.413	1194
585.465	1206
585.517	1200
585.569	1230
585.621	1194
585.673	1180
585.725	1196
585.777	1212
585.83	1214
585.882	1230
585.934	1224
585.986	1238
586.038	1206
586.09	1216
586.142	1302
586.194	1238
586.246	1236
586.298	1244
586.351	1250
586.403	1250
586.455	1272
586.507	1228
586.559	1288
586.611	1268
586.663	1298
586.715	1282
586.767	1266
586.819	1320
586.872	1324
586.924	1276
586.976	1286
587.028	1286
587.08	1332
587.132	1308
587.184	1302
587.236	1308
587.288	1254
587.34	1292
587.392	1320
587.445	1262
587.497	1316
587.549	1304
587.601	1288
587.653	1340
587.705	1332
587.757	1302
587.809	1320
587.861	1362
587.913	1280
587.965	1324
588.018	1296
588.07	1326
588.122	1338
588.174	1320
588.226	1326
588.278	1352
588.33	1346
588.382	1350
588.434	1330
588.486	1310
588.538	1310
588.59	1338
588.642	1374
588.695	1358
588.747	1364
588.799	1348
588.851	1368
588.903	1376
588.955	1366
589.007	1352
589.059	1374
589.111	1376
589.163	1364
589.215	1338
589.267	1358
589.319	1378
589.372	1394
589.424	1384
589.476	1390
589.528	1396
589.58	1428
589.632	1374
589.684	1390
589.736	1374
589.788	1410
589.84	1362
589.892	1372
589.944	1372
589.996	1338
590.048	1322
590.101	1400
590.153	1388
590.205	1372
590.257	1346
590.309	1356
590.361	1356
590.413	1368
590.465	1342
590.517	1368
590.569	1374
590.621	1326
590.673	1372
590.725	1356
590.777	1340
590.829	1372
590.881	1356
590.933	1340
590.986	1352
591.038	1346
591.09	1336
591.142	1358
591.194	1364
591.246	1338
591.298	1372
591.35	1372
591.402	1378
591.454	1332
591.506	1344
591.558	1328
591.61	1312
591.662	1338
591.714	1348
591.766	1322
591.818	1326
591.87	1334
591.923	1366
591.975	1342
592.027	1334
592.079	1356
592.131	1322
592.183	1334
592.235	1312
592.287	1312
592.339	1338
592.391	1272
592.443	1332
592.495	1314
592.547	1288
592.599	1342
592.651	1312
592.703	1286
592.755	1302
592.807	1304
592.859	1288
592.911	1322
592.963	1330
593.015	1324
593.068	1338
593.12	1294
593.172	1322
593.224	1314
593.276	1296
593.328	1304
593.38	1312
593.432	1304
593.484	1292
593.536	1290
593.588	1320
593.64	1310
593.692	1350
593.744	1338
593.796	1322
593.848	1324
593.9	1326
593.952	1324
594.004	1364
594.056	1328
594.108	1312
594.16	1350
594.212	1326
594.264	1356
594.316	1348
594.368	1314
594.42	1348
594.472	1322
594.524	1344
594.576	1394
594.628	1332
594.68	1342
594.732	1360
594.784	1356
594.837	1314
594.889	1368
594.941	1344
594.993	1374
595.045	1336
595.097	1386
595.149	1360
595.201	1352
595.253	1372
595.305	1402
595.357	1354
595.409	1370
595.461	1390
595.513	1358
595.565	1378
595.617	1408
595.669	1356
595.721	1408
595.773	1364
595.825	1378
595.877	1406
595.929	1414
595.981	1406
596.033	1450
596.085	1410
596.137	1384
596.189	1412
596.241	1430
596.293	1420
596.345	1454
596.397	1444
596.449	1446
596.501	1434
596.553	1496
596.605	1492
596.657	1494
596.709	1482
596.761	1446
596.813	1426
596.865	1464
596.917	1462
596.969	1456
597.021	1454
597.073	1444
597.125	1460
597.177	1462
