#Acq. time (s)=	3
#Accumulations=	2
#Range (nm)=	520...900
#Windows=	8
#Auto scanning=	Off
#Autofocus=	Off
#AutoExposure=	Off
#Spike filter=	Off
#Delay time (s)=	0
#Binning=	1
#Readout mode=	Signal
#DeNoise=	Off
#ICS correction=	Off
#Dark correction=	Off
#Inst. Process=	Off
#Detector temperature (°C)=	-59.98
#Instrument=	LabRAM HR Evol
#Detector=	Syncerity OE
#Objective=	x50_VIS
#Grating=	600 (500nm)
#ND Filter=	25%
#Laser=	514nm_Edge
#Hole=	199.981
#Range=	Visible
#StageXY=	Marzhauser
#StageZ=	Marzhauser
#X (µm)=	8995.1
#Y (µm)=	-4227
#Z (µm)=	-261.6
#Full time(mm:ss)=	1:32
#Project=	
#Sample=	
#Site=	
#Title=	PL_M5_280424
#Remark=	
#Date=	06.05.2024 16:44
#Acquired=	06.05.2024 16:44:15
520.044	36
520.097	35
520.149	41
520.201	42
520.254	33
520.306	39
520.359	44
520.411	40
520.464	38
520.516	38
520.569	46
520.621	39
520.674	37
520.726	38
520.778	39
520.831	46
520.883	49
520.936	35
520.988	44
521.041	42
521.093	40
521.146	40
521.198	42
521.25	47
521.303	48
521.355	39
521.408	43
521.46	47
521.513	36
521.565	42
521.617	46
521.67	45
521.722	40
521.775	38
521.827	43
521.88	40
521.932	38
521.984	45
522.037	46
522.089	47
522.142	44
522.194	41
522.247	49
522.299	42
522.352	41
522.404	44
522.456	46
522.509	51
522.561	39
522.614	38
522.666	42
522.719	42
522.771	42
522.823	40
522.876	38
522.928	41
522.981	43
523.033	36
523.086	45
523.138	44
523.19	45
523.243	41
523.295	53
523.348	47
523.4	50
523.453	39
523.505	50
523.557	41
523.61	39
523.662	39
523.715	44
523.767	39
523.82	41
523.872	34
523.924	47
523.977	38
524.029	36
524.082	39
524.134	39
524.186	46
524.239	41
524.291	38
524.344	46
524.396	46
524.449	47
524.501	45
524.553	48
524.606	47
524.658	46
524.711	36
524.763	47
524.815	51
524.868	36
524.92	43
524.973	39
525.025	51
525.078	47
525.13	42
525.182	48
525.235	43
525.287	43
525.34	49
525.392	44
525.444	46
525.497	49
525.549	43
525.602	44
525.654	47
525.706	43
525.759	39
525.811	42
525.864	46
525.916	43
525.969	44
526.021	42
526.073	47
526.126	46
526.178	39
526.231	45
526.283	53
526.335	47
526.388	41
526.44	49
526.493	38
526.545	39
526.597	33
526.65	45
526.702	42
526.755	43
526.807	43
526.859	50
526.912	47
526.964	43
527.017	46
527.069	48
527.121	55
527.174	52
527.226	37
527.279	47
527.331	44
527.383	41
527.436	44
527.488	40
527.54	49
527.593	38
527.645	42
527.698	44
527.75	54
527.802	43
527.855	44
527.907	49
527.96	44
528.012	50
528.064	38
528.117	53
528.169	49
528.222	39
528.274	38
528.326	48
528.379	44
528.431	46
528.484	45
528.536	50
528.588	49
528.641	49
528.693	47
528.745	51
528.798	44
528.85	43
528.903	42
528.955	38
529.007	45
529.06	40
529.112	37
529.164	41
529.217	46
529.269	51
529.322	47
529.374	52
529.426	49
529.479	45
529.531	34
529.584	41
529.636	43
529.688	40
529.741	40
529.793	43
529.845	48
529.898	41
529.95	39
530.003	44
530.055	46
530.107	47
530.16	43
530.212	48
530.264	44
530.317	37
530.369	41
530.422	42
530.474	47
530.526	47
530.579	50
530.631	50
530.683	39
530.736	47
530.788	38
530.841	48
530.893	43
530.945	44
530.998	43
531.05	47
531.102	39
531.155	43
531.207	33
531.259	48
531.312	51
531.364	45
531.417	46
531.469	49
531.521	44
531.574	46
531.626	36
531.678	44
531.731	49
531.783	41
531.835	49
531.888	52
531.94	49
531.992	48
532.045	39
532.097	39
532.15	43
532.202	45
532.254	47
532.307	44
532.359	48
532.411	42
532.464	41
532.516	49
532.568	50
532.621	50
532.673	48
532.726	48
532.778	46
532.83	53
532.883	40
532.935	43
532.987	52
533.04	55
533.092	49
533.144	55
533.197	52
533.249	50
533.301	44
533.354	39
533.406	54
533.458	54
533.511	50
533.563	53
533.615	50
533.668	47
533.72	43
533.773	51
533.825	54
533.877	47
533.93	48
533.982	48
534.034	52
534.087	47
534.139	50
534.191	46
534.244	49
534.296	54
534.348	54
534.401	56
534.453	59
534.505	56
534.558	59
534.61	66
534.662	66
534.715	61
534.767	63
534.819	66
534.872	70
534.924	70
534.976	60
535.029	69
535.081	69
535.133	63
535.186	64
535.238	75
535.29	75
535.343	68
535.395	64
535.447	74
535.5	65
535.552	70
535.604	71
535.657	65
535.709	62
535.761	67
535.814	70
535.866	61
535.918	60
535.971	53
536.023	59
536.075	66
536.128	65
536.18	63
536.232	63
536.285	50
536.337	63
536.389	61
536.442	61
536.494	52
536.546	60
536.599	60
536.651	53
536.703	57
536.755	58
536.808	63
536.86	54
536.912	55
536.965	59
537.017	60
537.069	46
537.122	54
537.174	58
537.226	59
537.279	53
537.331	57
537.383	62
537.436	55
537.488	55
537.54	54
537.593	59
537.645	58
537.697	53
537.75	55
537.802	59
537.854	57
537.906	54
537.959	49
538.011	50
538.063	57
538.116	49
538.168	60
538.22	63
538.273	59
538.325	55
538.377	50
538.43	54
538.482	53
538.534	53
538.586	60
538.639	61
538.691	63
538.743	51
538.796	57
538.848	55
538.9	49
538.953	50
539.005	63
539.057	65
539.109	60
539.162	56
539.214	53
539.266	58
539.319	57
539.371	56
539.423	63
539.476	68
539.528	59
539.58	58
539.633	51
539.685	55
539.737	60
539.789	52
539.842	58
539.894	63
539.946	60
539.999	57
540.051	54
540.103	57
540.155	58
540.208	59
540.26	67
540.312	64
540.365	58
540.417	51
540.469	56
540.521	56
540.574	63
540.626	57
540.678	53
540.731	70
540.783	64
540.835	54
540.888	60
540.94	56
540.992	61
541.044	57
541.097	56
541.149	68
541.201	58
541.254	48
541.306	66
541.358	60
541.41	62
541.463	63
541.515	63
541.567	65
541.62	64
541.672	51
541.724	57
541.776	64
541.829	70
541.881	64
541.933	67
541.985	71
542.038	56
542.09	63
542.142	55
542.195	64
542.247	59
542.299	63
542.351	58
542.404	59
542.456	58
542.508	54
542.56	57
542.613	66
542.665	64
542.717	63
542.77	63
542.822	63
542.874	70
542.926	66
542.979	66
543.031	71
543.083	66
543.135	55
543.188	59
543.24	63
543.292	72
543.344	64
543.397	67
543.449	66
543.501	71
543.554	64
543.606	63
543.658	73
543.71	70
543.763	72
543.815	63
543.867	68
543.919	73
543.972	67
544.024	75
544.076	78
544.128	72
544.181	76
544.233	67
544.285	69
544.337	72
544.39	70
544.442	66
544.494	75
544.547	72
544.599	64
544.651	65
544.703	71
544.755	70
544.808	74
544.86	74
544.912	71
544.965	77
545.017	76
545.069	65
545.121	80
545.174	81
545.226	83
545.278	61
545.33	74
545.383	80
545.435	79
545.487	70
545.539	84
545.591	78
545.644	69
545.696	61
545.748	75
545.8	82
545.853	75
545.905	77
545.957	77
546.009	68
546.062	83
546.114	72
546.166	76
546.218	82
546.271	77
546.323	77
546.375	85
546.427	83
546.48	74
546.532	75
546.584	82
546.636	82
546.689	82
546.741	77
546.793	80
546.845	70
546.898	79
546.95	80
547.002	83
547.054	83
547.106	90
547.159	83
547.211	79
547.263	91
547.315	83
547.368	76
547.42	89
547.472	83
547.524	97
547.577	77
547.629	93
547.681	90
547.733	88
547.785	80
547.838	92
547.89	86
547.942	87
547.994	84
548.047	90
548.099	86
548.151	86
548.203	84
548.255	95
548.308	96
548.36	90
548.412	93
548.464	95
548.517	88
548.569	87
548.621	87
548.673	88
548.725	106
548.778	95
548.83	95
548.882	89
548.934	91
548.987	95
549.039	86
549.091	96
549.143	96
549.195	102
549.248	96
549.3	99
549.352	98
549.404	95
549.456	96
549.509	96
549.561	111
549.613	107
549.665	96
549.718	105
549.77	110
549.822	101
549.874	94
549.926	101
549.979	110
550.031	118
550.083	109
550.135	119
550.187	111
550.24	105
550.292	99
550.344	110
550.396	119
550.448	125
550.501	101
550.553	120
550.605	118
550.657	123
550.709	105
550.762	119
550.814	126
550.866	123
550.918	116
550.97	120
551.023	131
551.075	127
551.127	124
551.179	134
551.231	149
551.284	133
551.336	144
551.388	139
551.44	148
551.492	152
551.545	151
551.597	158
551.649	177
551.701	192
551.753	170
551.806	195
551.858	212
551.91	222
551.962	234
552.014	245
552.067	256
552.119	297
552.171	322
552.223	368
552.275	431
552.327	550
552.38	649
552.432	976
552.484	1824
552.536	4198
552.588	7989
552.641	14094
552.693	24788
552.745	39158
552.797	29513
552.849	12712
552.901	4269
552.954	1764
553.006	1067
553.058	723
553.11	539
553.162	436
553.215	371
553.267	322
553.319	281
553.371	273
553.423	243
553.475	227
553.528	209
553.58	199
553.632	190
553.684	191
553.736	182
553.788	172
553.841	178
553.893	167
553.945	162
553.997	161
554.049	160
554.102	163
554.154	155
554.206	153
554.258	150
554.31	152
554.362	142
554.414	152
554.467	137
554.519	138
554.571	138
554.623	141
554.675	140
554.727	140
554.78	132
554.832	149
554.884	132
554.936	139
554.988	137
555.04	137
555.093	135
555.145	141
555.197	143
555.249	143
555.301	129
555.353	138
555.406	146
555.458	150
555.51	120
555.562	134
555.614	146
555.666	133
555.719	137
555.771	147
555.823	157
555.875	148
555.927	142
555.979	139
556.031	138
556.084	144
556.136	128
556.188	149
556.24	159
556.292	144
556.344	142
556.396	151
556.449	147
556.501	130
556.553	140
556.605	141
556.657	140
556.709	152
556.762	138
556.814	146
556.866	153
556.918	141
556.97	145
557.022	146
557.074	151
557.127	147
557.179	147
557.231	152
557.283	140
557.335	154
557.387	155
557.439	142
557.492	150
557.544	154
557.596	146
557.648	138
557.7	160
557.752	165
557.804	147
557.856	163
557.909	171
557.961	159
558.013	158
558.065	157
558.117	162
558.169	160
558.221	150
558.273	156
558.326	173
558.378	160
558.43	176
558.482	161
558.534	174
558.586	175
558.638	169
558.691	166
558.743	156
558.795	166
558.847	160
558.899	161
558.951	154
559.003	175
559.055	173
559.108	158
559.16	169
559.212	163
559.264	178
559.316	171
559.368	168
559.42	168
559.472	159
559.525	174
559.577	168
559.629	167
559.681	161
559.733	158
559.785	174
559.837	172
559.889	171
559.941	173
559.994	174
560.046	191
560.098	165
560.15	180
560.202	173
560.254	191
560.306	171
560.358	181
560.41	186
560.463	183
560.515	179
560.567	177
560.619	178
560.671	194
560.723	185
560.775	188
560.827	193
560.879	190
560.932	190
560.984	191
561.036	200
561.088	187
561.14	192
561.192	197
561.244	191
561.296	206
561.348	187
561.4	191
561.453	202
561.505	215
561.557	179
561.609	189
561.661	212
561.713	195
561.765	193
561.817	192
561.869	211
561.921	192
561.974	192
562.026	202
562.078	197
562.13	202
562.182	197
562.234	205
562.286	216
562.338	219
562.39	209
562.442	202
562.494	201
562.547	218
562.599	199
562.651	202
562.703	216
562.755	210
562.807	214
562.859	220
562.911	216
562.963	208
563.015	216
563.067	224
563.12	222
563.172	225
563.224	218
563.276	218
563.328	246
563.38	219
563.432	217
563.484	216
563.536	232
563.588	233
563.64	227
563.692	230
563.744	248
563.797	228
563.849	251
563.901	246
563.953	257
564.005	259
564.057	250
564.109	249
564.161	267
564.213	265
564.265	260
564.317	258
564.369	259
564.421	253
564.474	249
564.526	232
564.578	252
564.63	253
564.682	252
564.734	256
564.786	245
564.838	256
564.89	251
564.942	253
564.994	259
565.046	259
565.098	252
565.15	256
565.202	262
565.255	265
565.307	254
565.359	249
565.411	266
565.463	254
565.515	246
565.567	250
565.619	255
565.671	264
565.723	257
565.775	251
565.827	268
565.879	276
565.931	289
565.983	271
566.035	266
566.087	255
566.139	276
566.192	254
566.244	262
566.296	266
566.348	274
566.4	261
566.452	276
566.504	285
566.556	275
566.608	278
566.66	284
566.712	263
566.764	272
566.816	278
566.868	266
566.92	287
566.972	289
567.024	284
567.076	284
567.128	279
567.18	266
567.232	294
567.285	303
567.337	294
567.389	299
567.441	275
567.493	277
567.545	294
567.597	291
567.649	278
567.701	308
567.753	288
567.805	298
567.857	267
567.909	298
567.961	300
568.013	301
568.065	318
568.117	315.92
568.169	311.892
568.221	310.698
568.273	310.431
568.325	307.766
568.377	304.929
568.429	308.939
568.481	299.885
568.533	303.19
568.585	311.007
568.637	305.212
568.69	302.716
568.742	323.761
568.794	297.433
568.846	315.484
568.898	306.977
568.95	323.317
569.002	314.054
569.054	317.351
569.106	309.799
569.158	324.116
569.21	324.423
569.262	324.06
569.314	319.861
569.366	324.49
569.418	335.953
569.47	333.097
569.522	322.977
569.574	332.355
569.626	333.692
569.678	334.777
569.73	333.293
569.782	335.889
569.834	346.614
569.886	347.43
569.938	346.086
569.99	346.018
570.042	346.734
570.094	350.08
570.146	346.858
570.198	345.573
570.25	361.904
570.302	358.69
570.354	356.154
570.406	367.016
570.458	354.84
570.51	357.473
570.562	362.576
570.614	354.979
570.666	364.558
570.718	372.54
570.77	375.754
570.822	392.986
570.874	382.405
570.926	379.289
570.978	387.061
571.03	394.839
571.082	394.739
571.134	397.292
571.186	386.371
571.238	392.857
571.29	394.982
571.342	404.823
571.394	408.097
571.446	408.335
571.498	408.721
571.55	411.781
571.602	427.438
571.654	429.356
571.706	416.479
571.758	433.784
571.81	432.169
571.862	440.634
571.914	445.305
571.966	446.034
572.018	438.468
572.07	456.833
572.122	464.151
572.174	454.764
572.226	467.757
572.278	478.769
572.33	467.022
572.382	474.125
572.434	476.731
572.486	475.898
572.538	483.125
572.59	487.243
572.642	490.56
572.694	520.129
572.746	511.431
572.798	534.853
572.85	527.478
572.902	540.35
572.954	548.743
573.006	542.502
573.058	553.711
573.11	552.903
573.162	572.416
573.214	583.754
573.266	584.828
573.312	583
573.364	587
573.416	601
573.469	606
573.521	622
573.573	624
573.625	622
573.677	621
573.73	657
573.782	653
573.834	690
573.886	688
573.938	689
573.991	686
574.043	718
574.095	726
574.147	746
574.199	751
574.252	751
574.304	778
574.356	792
574.408	815
574.46	792
574.513	847
574.565	837
574.617	866
574.669	873
574.721	872
574.774	919
574.826	914
574.878	940
574.93	961
574.982	945
575.035	977
575.087	1010
575.139	1011
575.191	1002
575.243	1024
575.296	1038
575.348	1053
575.4	1081
575.452	1075
575.504	1079
575.556	1086
575.609	1103
575.661	1112
575.713	1114
575.765	1107
575.817	1122
575.87	1112
575.922	1123
575.974	1107
576.026	1124
576.078	1106
576.131	1100
576.183	1110
576.235	1105
576.287	1076
576.339	1096
576.391	1124
576.444	1047
576.496	1087
576.548	1046
576.6	1037
576.652	1034
576.705	1039
576.757	1026
576.809	1012
576.861	1005
576.913	1015
576.965	976
577.018	961
577.07	956
577.122	947
577.174	932
577.226	906
577.279	919
577.331	904
577.383	869
577.435	908
577.487	860
577.539	874
577.592	856
577.644	816
577.696	850
577.748	850
577.8	828
577.852	832
577.905	792
577.957	798
578.009	770
578.061	805
578.113	768
578.165	785
578.218	769
578.27	766
578.322	759
578.374	750
578.426	739
578.478	730
578.531	710
578.583	743
578.635	758
578.687	739
578.739	737
578.791	718
578.844	703
578.896	722
578.948	717
579	731
579.052	715
579.104	701
579.157	702
579.209	690
579.261	709
579.313	714
579.365	729
579.417	694
579.47	718
579.522	718
579.574	712
579.626	710
579.678	692
579.73	707
579.782	703
579.835	729
579.887	701
579.939	703
579.991	717
580.043	719
580.095	709
580.148	703
580.2	706
580.252	699
580.304	726
580.356	710
580.408	716
580.46	715
580.513	709
580.565	715
580.617	705
580.669	698
580.721	692
580.773	722
580.826	736
580.878	734
580.93	720
580.982	714
581.034	704
581.086	711
581.138	715
581.191	716
581.243	712
581.295	699
581.347	726
581.399	726
581.451	734
581.503	727
581.556	741
581.608	746
581.66	714
581.712	749
581.764	753
581.816	763
581.868	731
581.92	755
581.973	747
582.025	744
582.077	753
582.129	763
582.181	719
582.233	725
582.285	743
582.338	762
582.39	764
582.442	757
582.494	753
582.546	768
582.598	743
582.65	763
582.703	772
582.755	786
582.807	780
582.859	785
582.911	794
582.963	792
583.015	775
583.067	787
583.12	803
583.172	793
583.224	775
583.276	806
583.328	779
583.38	821
583.432	825
583.484	807
583.537	795
583.589	816
583.641	789
583.693	824
583.745	811
583.797	805
583.849	839
583.901	850
583.953	817
584.006	836
584.058	819
584.11	843
584.162	854
584.214	865
584.266	858
584.318	854
584.37	843
584.423	836
584.475	878
584.527	862
584.579	882
584.631	857
584.683	892
584.735	843
584.787	889
584.839	890
584.892	880
584.944	909
584.996	906
585.048	908
585.1	913
585.152	895
585.204	917
585.256	926
585.308	904
585.361	899
585.413	929
585.465	920
585.517	931
585.569	944
585.621	939
585.673	936
585.725	946
585.777	955
585.83	978
585.882	956
585.934	965
585.986	965
586.038	942
586.09	963
586.142	974
586.194	975
586.246	979
586.298	971
586.351	990
586.403	962
586.455	941
586.507	997
586.559	974
586.611	986
586.663	974
586.715	989
586.767	983
586.819	985
586.872	974
586.924	988
586.976	993
587.028	991
587.08	999
587.132	974
587.184	1005
587.236	976
587.288	1022
587.34	1025
587.392	1006
587.445	1021
587.497	1030
587.549	1031
587.601	1012
587.653	996
587.705	1028
587.757	1051
587.809	1014
587.861	1033
587.913	1015
587.965	1034
588.018	1028
588.07	1036
588.122	1027
588.174	1056
588.226	1042
588.278	1029
588.33	1023
588.382	1028
588.434	1056
588.486	1029
588.538	1024
588.59	1064
588.642	1060
588.695	1025
588.747	1045
588.799	1042
588.851	1075
588.903	1083
588.955	1047
589.007	1054
589.059	1085
589.111	1080
589.163	1096
589.215	1122
589.267	1108
589.319	1089
589.372	1117
589.424	1122
589.476	1109
589.528	1096
589.58	1106
589.632	1129
589.684	1103
589.736	1121
589.788	1130
589.84	1069
589.892	1092
589.944	1068
589.996	1106
590.048	1116
590.101	1093
590.153	1103
590.205	1053
590.257	1073
590.309	1087
590.361	1105
590.413	1087
590.465	1097
590.517	1058
590.569	1115
590.621	1052
590.673	1103
590.725	1052
590.777	1102
590.829	1061
590.881	1057
590.933	1060
590.986	1071
591.038	1041
591.09	1074
591.142	1043
591.194	1065
591.246	1066
591.298	1069
591.35	1046
591.402	1068
591.454	1029
591.506	1015
591.558	1045
591.61	1040
591.662	1025
591.714	1035
591.766	1046
591.818	1022
591.87	1052
591.923	1031
591.975	1016
592.027	1025
592.079	1030
592.131	1013
592.183	1014
592.235	978
592.287	984
592.339	1008
592.391	1004
592.443	988
592.495	1006
592.547	1002
592.599	1002
592.651	1026
592.703	1031
592.755	997
592.807	1035
592.859	1003
592.911	1017
592.963	1011
593.015	988
593.068	1005
593.12	1025
593.172	1011
593.224	1001
593.276	983
593.328	1023
593.38	1029
593.432	1018
593.484	1039
593.536	995
593.588	1017
593.64	1012
593.692	1008
593.744	1027
593.796	1023
593.848	1016
593.9	1010
593.952	994
594.004	1022
594.056	1035
594.108	982
594.16	999
594.212	1017
594.264	1043
594.316	1016
594.368	1017
594.42	995
594.472	1005
594.524	1012
594.576	1027
594.628	1040
594.68	1000
594.732	1041
594.784	1055
594.837	1049
594.889	1018
594.941	1031
594.993	1022
595.045	1031
595.097	1054
595.149	1034
595.201	1057
595.253	1050
595.305	1031
595.357	1040
595.409	1022
595.461	1058
595.513	1076
595.565	1043
595.617	1046
595.669	1044
595.721	1089
595.773	1060
595.825	1039
595.877	1063
595.929	1056
595.981	1064
596.033	1074
596.085	1075
596.137	1119
596.189	1092
596.241	1079
596.293	1065
596.345	1109
596.397	1103
596.449	1085
596.501	1118
596.553	1126
596.605	1097
596.657	1136
596.709	1129
596.761	1143
596.813	1099
596.865	1124
596.917	1090
596.969	1130
597.021	1124
597.073	1095
597.125	1097
597.177	1120
597.229	1075
597.281	1102
597.333	1089
597.385	1100
597.437	1103
597.489	1133
597.541	1086
597.593	1120
597.645	1085
597.697	1084
597.749	1086
597.801	1106
597.853	1133
