#Acq. time (s)=	3
#Accumulations=	2
#Range (nm)=	520...900
#Windows=	16
#Auto scanning=	On
#Autofocus=	Off
#AutoExposure=	Off
#Spike filter=	Multiple accum.
#Delay time (s)=	0
#Binning=	1
#Readout mode=	Signal
#DeNoise=	Off
#ICS correction=	Off
#Dark correction=	Off
#Inst. Process=	Off
#Detector temperature (°C)=	-59.98
#Instrument=	LabRAM HR Evol
#Detector=	Syncerity OE
#Objective=	x50_VIS
#Grating=	600 (500nm)
#ND Filter=	10%
#Laser=	514nm_Edge
#Hole=	199.981
#Range=	Auto
#StageXY=	Marzhauser
#StageZ=	Marzhauser
#X (µm)=	-4700.1
#Y (µm)=	-8959.1
#Z (µm)=	-21.1
#Full time(mm:ss)=	2:39
#Project=	
#Sample=	
#Site=	
#Title=	PL_SCD3_121223
#Remark=	
#Date=	21.12.2023 09:54
#Acquired=	21.12.2023 09:54:48
520.042	37
520.094	35
520.147	32
520.199	35
520.251	30.1953
520.304	32.8976
520.356	28.8952
520.408	31.1607
520.461	32.114
520.513	31.8254
520.565	32.8813
520.618	37.0628
520.67	35
520.723	35
520.775	30.9325
520.827	34.1395
520.88	34.8556
520.932	36.0733
520.984	29.1513
521.037	34.8463
521.089	35
521.141	34.0815
521.194	33.6694
521.246	37.17
521.298	36.9139
521.351	40.8209
521.403	32.2724
521.455	30.3725
521.508	30.0943
521.56	36
521.612	29.6088
521.665	39.7977
521.717	33.6147
521.769	29.6857
521.822	30.7881
521.874	33.2165
521.926	31.1094
521.979	35.8882
522.031	34.4354
522.083	38.2305
522.136	34.3558
522.188	33.8801
522.24	32.8778
522.293	37
522.345	33.1257
522.397	34.2561
522.45	40.0955
522.502	40.5262
522.554	30.4016
522.607	32.5949
522.659	34
522.711	36.8603
522.764	28.8452
522.816	33.5704
522.868	37.1269
522.921	40.44
522.973	34.447
523.025	31.8487
523.078	29
523.13	38.071
523.182	31.2573
523.234	28.1595
523.287	35.1967
523.339	32.8149
523.391	33.5041
523.444	32.3353
523.496	32.3248
523.548	37
523.601	36.8277
523.653	32.6985
523.705	30.8231
523.758	33.1781
523.81	37.4587
523.862	32.7311
523.915	35.4447
523.967	36.8126
524.019	37.8112
524.072	34.7637
524.124	32.2317
524.176	38
524.229	36.3935
524.281	35.8009
524.333	33.7995
524.385	40
524.438	36.2049
524.49	32
524.542	34.4191
524.595	35
524.647	38.3644
524.699	33.071
524.752	35.1339
524.804	35.7811
524.856	36.6608
524.909	27.3341
524.961	35.7532
525.013	37.908
525.066	34
525.118	34
525.17	37.3015
525.222	34.7028
525.275	35
525.327	35.7614
525.379	35.2762
525.432	36.2165
525.484	42.2631
525.536	38
525.589	41.2517
525.641	28.2631
525.693	34.2235
525.745	32.2552
525.798	36.5145
525.85	34
525.902	33.2608
525.955	33
526.007	40.2028
526.059	36.8033
526.112	36.9197
526.164	35.8147
526.216	37.7264
526.268	39.7238
526.321	38.5565
526.373	32.7203
526.425	37.7183
526.478	37
526.53	39.7133
526.582	35
526.635	38.5804
526.687	35
526.739	33.2937
526.791	29.1874
526.844	33.8065
526.896	36.3004
526.948	33.697
527.001	31
527.053	36.7739
527.105	32.851
527.157	38.7552
527.21	37
527.262	39.3706
527.314	37.2712
527.367	33.3193
527.419	32.3205
527.471	34.3818
527.523	35.9755
527.576	33.3271
527.628	32.3403
527.68	36.6682
527.733	35.669
527.785	37.6643
527.837	35
527.889	37
527.942	33.683
527.994	38.3446
528.046	32.9615
528.099	35
528.151	36.3508
528.203	35.9406
528.255	33.3551
528.308	38
528.36	34.7179
528.412	32
528.464	35.2727
528.517	36.6352
528.569	35.1014
528.621	35.1071
528.674	32.141
528.726	36.6259
528.778	38
528.83	39.7576
528.883	34.4802
528.935	40.1469
528.987	38.1525
529.039	27.6131
529.092	34.4429
529.144	43.6096
529.196	36.1783
529.249	34.1839
529.301	34.4103
529.353	41.7995
529.405	34.2028
529.458	32.7902
529.51	36.5937
529.562	39.4079
529.614	38.359
529.667	36.6504
529.719	35.5862
529.771	38.1678
529.823	37.6764
529.876	33.683
529.928	27.7308
529.98	40.2984
530.033	40
530.085	35.2867
530.137	36.2751
530.189	34.7343
530.242	36.5641
530.294	34.4371
530.346	33.1199
530.398	39.6713
530.451	37.4452
530.503	35.3427
530.555	37.6538
530.607	39.3531
530.66	40.0932
530.712	34.3671
530.764	35.6259
530.816	38.3811
530.869	33.0769
530.921	33.9277
530.973	38.6014
531.025	33.8112
531.078	36.704
531.13	34.3124
531.182	33.6224
531.234	34.9557
531.287	38.5198
531.339	34.4825
531.391	40.0979
531.443	37.3979
531.496	35.5641
531.548	34.958
531.6	39.5245
531.652	36.4942
531.705	36
531.757	34.4988
531.809	33.9977
531.861	35.5105
531.914	35.9767
531.966	37.4924
532.018	40.5093
532.07	37.5117
532.123	38.542
532.175	34.4476
532.227	39
532.279	35.5216
532.332	38.4767
532.384	32.1026
532.436	33.9441
532.488	41.4697
532.541	36.5321
532.593	38.331
532.645	39
532.697	38.7774
532.75	34.8343
532.802	35.7156
532.854	40.5455
532.906	43.2867
532.958	38.9008
533.011	38.1049
533.063	39.8904
533.115	33.7855
533.167	34.8821
533.22	34
533.272	39.1795
533.324	40.3956
533.376	35.5676
533.429	31.5604
533.481	39.2493
533.533	42.4528
533.585	41.3514
533.638	36.1606
533.69	39.7391
533.742	37.145
533.794	36.3646
533.846	33.9575
533.899	39.5744
533.951	38.106
534.003	36.7529
534.055	36.5248
534.108	40
534.16	39.0587
534.212	39.4837
534.264	40.5532
534.316	34.7972
534.369	37.3123
534.421	38.7652
534.473	34.666
534.525	39.3183
534.578	40.7575
534.63	38.7182
534.682	35.0197
534.734	38.6904
534.786	40.683
534.839	40.2621
534.891	37.294
534.943	35.3522
534.995	39.3522
535.047	36.8748
535.1	35.1292
535.152	41.4143
535.204	44.6063
535.256	40.6371
535.309	39.4344
535.361	41.5464
535.413	38.5769
535.465	38.7908
535.517	40.7145
535.57	43.6576
535.622	41.3268
535.674	40.5342
535.726	33.0819
535.778	41.953
535.831	44.4582
535.883	38.8121
535.935	39.5722
535.987	41.2807
536.039	37.2016
536.092	35.2574
536.144	33.8839
536.196	40.6443
536.248	43.0992
536.301	39.4297
536.353	34.6251
536.405	41.7083
536.457	37.3441
536.509	39.7897
536.562	37.3534
536.614	40.6326
536.666	40.0378
536.718	35.608
536.77	39.1013
536.823	42.1911
536.875	39.9596
536.927	40.916
536.979	39.6183
537.031	42.0666
537.083	37.8886
537.136	42.2555
537.188	38.6811
537.24	44.5029
537.292	40
537.344	36.4873
537.397	39.2679
537.449	42.6795
537.501	39.3431
537.553	39.9435
537.605	34.3677
537.658	41.9652
537.71	46
537.762	41.3369
537.814	40.7013
537.866	39.3268
537.919	40.9123
537.971	42.7271
538.023	40.9569
538.075	41.133
538.127	35.4348
538.18	39.4835
538.232	40.2041
538.284	44.38
538.336	43.6632
538.388	41.7692
538.44	38.248
538.493	41.764
538.545	38.401
538.597	39.1121
538.649	38.6558
538.701	38.8063
538.754	38.9934
538.806	37.4134
538.858	37.423
538.91	44.1372
538.962	39.1676
539.014	37.4227
539.067	38.5127
539.119	42.5695
539.171	43.3822
539.223	40.7598
539.275	40.0088
539.327	42.7483
539.38	44.9154
539.432	44.0157
539.484	42
539.536	42.5382
539.588	43.0685
539.641	40.328
539.693	45.5564
539.745	42.9609
539.797	43.796
539.849	40.6395
539.901	45.3692
539.954	39.7005
540.006	42.3973
540.058	36.8057
540.11	41.9194
540.162	38.9824
540.214	40.203
540.267	49.6362
540.319	47.2337
540.371	42.6024
540.423	40.8287
540.475	43.5323
540.527	45.7356
540.58	47.6621
540.632	44.1641
540.684	42.3479
540.736	42.2706
540.788	44.6481
540.84	41.3209
540.892	40.7389
540.945	49.2797
540.997	48.8638
541.049	43.2886
541.101	44.4684
541.153	41.8455
541.205	46.4129
541.258	43.7096
541.31	43.5782
541.362	45.9941
541.414	46.521
541.466	37.8996
541.518	42.3161
541.57	47.7965
541.623	43.4334
541.675	46.4883
541.727	41.0237
541.779	42.5647
541.831	39.8742
541.883	46.1096
541.936	44.2842
541.988	47.927
542.04	45.6497
542.092	46.9755
542.144	44.1801
542.196	49.9438
542.248	46.6614
542.301	47.5232
542.353	42.8256
542.405	49.7162
542.457	50.193
542.509	40.3465
542.561	41.4546
542.613	48.2598
542.666	44.6245
542.718	45.3734
542.77	41.409
542.822	42.6131
542.874	51.7043
542.926	44.8673
542.978	43.7202
543.031	53.1219
543.083	42.3688
543.135	43.9798
543.187	37.4183
543.239	49.8011
543.291	44.0978
543.343	42.0367
543.396	44.2056
543.448	45.9528
543.5	46.2407
543.552	51.8835
543.604	42.3592
543.656	43.3738
543.708	48.0198
543.76	48.4423
543.813	40.9682
543.865	42.5564
543.917	43.7028
543.969	50.6041
544.021	41.7893
544.073	53.2925
544.125	41.5135
544.177	46.9827
544.23	46.3025
544.282	53.3338
544.334	51.4132
544.386	48.4344
544.438	51.216
544.49	55.0519
544.542	45.0383
544.594	48.9142
544.647	43.2393
544.699	47.8218
544.751	49.5419
544.803	53.229
544.855	46.8434
544.907	46
544.959	51.4367
545.011	51.7456
545.064	50.3206
545.116	48.2021
545.168	53.1482
545.22	58.4723
545.272	49.5152
545.324	53.3354
545.376	52.3284
545.428	48.1795
545.48	56.1637
545.533	61.1608
545.585	46.9932
545.637	52.6526
545.689	52.2607
545.741	55.3237
545.793	45.6246
545.845	52.1042
545.897	48.9103
545.949	56.5017
546.002	56.2406
546.054	50.6022
546.106	58.2898
546.158	66.4263
546.21	57.8242
546.262	52.6101
546.314	60.1778
546.366	63.5638
546.418	55.7419
546.471	50.6205
546.523	59.884
546.575	53.8146
546.627	53.6909
546.679	50.7468
546.689	50.0213
546.741	59.9709
546.793	48.1204
546.845	48.0878
546.898	50.0327
546.95	50.0134
547.002	59.8891
547.054	50.0627
547.106	59.7797
547.159	49.9961
547.211	59.814
547.263	57.8355
547.315	61.5557
547.368	63.6777
547.42	60.0507
547.472	48.4496
547.524	58.0664
547.577	61.6721
547.629	56.1113
547.681	54.1955
547.733	54.1204
547.785	56.149
547.838	57.9568
547.89	52.117
547.942	54.0314
547.994	65.6517
548.047	63.6894
548.099	65.3383
548.151	59.7549
548.203	63.6538
548.255	54.1938
548.308	55.8216
548.36	53.8178
548.412	59.2498
548.464	54.2579
548.517	61.2782
548.569	50.2496
548.621	67.2121
548.673	63.646
548.725	61.9337
548.778	63.7966
548.83	64.1374
548.882	58.6754
548.934	61.7872
548.987	65.2926
549.039	62.0733
549.091	62.118
549.143	65.6826
549.195	62.1237
549.248	76.1326
549.3	59.6626
549.352	60.2669
549.404	64.3243
549.456	70.9826
549.509	51.4001
549.561	65.4011
549.613	69.2436
549.665	67.8505
549.718	67.6538
549.77	58.3309
549.822	63.6644
549.874	75.6519
549.926	66.9969
549.979	67.3913
550.031	58.5253
550.083	65.9303
550.135	71.6264
550.187	71.186
550.24	62.8275
550.292	70.9674
550.344	65.8064
550.396	62.2923
550.448	69.6082
550.501	73.4012
550.553	71.2062
550.605	70.6209
550.657	73.1655
550.709	78.8573
550.762	68.5206
550.814	78.5257
550.866	71.6251
550.918	73.7476
550.97	76.8106
551.023	74.3134
551.075	68.2784
551.127	82.5458
551.179	81.8808
551.231	79.2957
551.284	77.8583
551.336	90.163
551.388	78.9161
551.44	85.0265
551.492	90.1539
551.545	83.1265
551.597	88.2187
551.649	88.657
551.701	95.607
551.753	98.8432
551.806	97.8899
551.858	101.355
551.91	117.181
551.962	116.898
552.014	131.813
552.067	133.553
552.119	144.628
552.171	158.362
552.223	191.428
552.275	199.885
552.327	269.528
552.38	388.237
552.432	709.984
552.484	1565.52
552.536	3200.44
552.588	5939.87
552.641	10364.2
552.693	12397.6
552.745	8425.43
552.797	4122.22
552.849	1601.3
552.901	676.247
552.954	375.517
553.006	262.594
553.058	214.858
553.11	182.489
553.162	164.266
553.215	134.056
553.267	127.253
553.319	120.526
553.371	117.865
553.423	103.339
553.475	105.829
553.528	101.258
553.58	95.8905
553.632	107.22
553.684	90.2
553.736	88.8804
553.788	90.1077
553.841	90.3321
553.893	95.1398
553.945	83.1089
553.997	83.1167
554.049	82.9133
554.102	80.461
554.154	80.6306
554.206	88.3165
554.258	82.2079
554.31	80.1205
554.362	75.2359
554.414	86.3859
554.467	80.6807
554.519	74.7964
554.571	71.3903
554.623	86.0853
554.675	78.6089
554.727	74.1575
554.78	78.3443
554.832	82.4293
554.884	75.6515
554.936	77.4086
554.988	73.8404
555.04	81.9065
555.093	81.4526
555.145	79.9106
555.197	68.3512
555.249	90.425
555.301	80.5668
555.353	75.7131
555.406	72.5766
555.458	78.75
555.51	75.1581
555.562	78.5401
555.614	84
555.666	78.7315
555.719	73.089
555.771	74
555.823	81.1569
555.875	80.5761
555.927	84.5953
555.979	81.7723
556.031	81.1595
556.084	71.6282
556.136	76.8244
556.188	81.6421
556.24	75.823
556.292	81.3021
556.344	81.0613
556.396	82.2321
556.449	76.5196
556.501	86.8535
556.553	87.8138
556.605	86.8063
556.657	89.0243
556.709	86.9783
556.762	81.7005
556.814	86.0316
556.866	80.4872
556.918	97.737
556.97	84.1875
557.022	84.4805
557.074	87.7798
557.127	88.9768
557.179	93.941
557.231	83.0208
557.283	86.8035
557.335	90.4644
557.387	90.8871
557.439	90.1502
557.492	95.0638
557.544	88.0336
557.596	92.3463
557.648	88.8909
557.7	88.3711
557.752	96.2265
557.804	97.1084
557.856	92.0227
557.909	92.9753
557.961	96.6932
558.013	89.75
558.065	92.495
558.117	92.995
558.169	84.5456
558.221	87.485
558.273	85.5169
558.326	91.9846
558.378	82.6722
558.43	93.9979
558.482	94.214
558.534	88.6907
558.586	90.4095
558.638	91.981
558.691	86.5996
558.743	94.0842
558.795	93.7039
558.847	87.3447
558.899	95.1585
558.951	90.183
559.003	89.6623
559.055	88.8344
559.108	94.2301
559.16	90.8863
559.212	93.6969
559.264	91.182
559.316	96.6926
559.368	97.9183
559.42	89.0466
559.472	89.2246
559.525	90.7355
559.577	95.856
559.629	95.3082
559.681	94.9119
559.733	101.779
559.785	99.047
559.837	89.2903
559.889	86.9942
559.941	96.9259
559.994	99.5662
560.046	93.4857
560.098	95.9906
560.15	98.7228
560.202	92.1899
560.254	97.7977
560.306	96.7441
560.358	93.9411
560.41	99.971
560.463	102.139
560.515	95.7982
560.567	88.5821
560.619	95.7953
560.671	94.9228
560.723	92.9036
560.775	99.2932
560.827	97.8203
560.879	97.9461
560.932	100.117
560.984	98.1595
561.036	104.76
561.088	101.367
561.14	99.0709
561.192	102.25
561.244	107.865
561.296	101.722
561.348	102.204
561.4	97.7782
561.453	100.673
561.505	103.934
561.557	97.554
561.609	106.711
561.661	102.764
561.713	105.575
561.765	97.4709
561.817	104.579
561.869	113.36
561.921	105.555
561.974	107.892
562.026	104.731
562.078	112.225
562.13	103.83
562.182	109.861
562.234	110
562.286	113.752
562.338	116.978
562.39	110.177
562.442	111.665
562.494	113.822
562.547	106.61
562.599	119.47
562.651	118.409
562.703	114.311
562.755	110.596
562.807	116.233
562.859	107.119
562.911	113.922
562.963	116.038
563.015	118.48
563.067	120.548
563.12	118.54
563.172	118.188
563.224	110.904
563.276	114.85
563.328	115.096
563.38	117.366
563.432	113.644
563.484	121.476
563.536	130.401
563.588	124.912
563.64	121.278
563.692	117.622
563.744	119.209
563.797	123.29
563.849	115.409
563.901	122.902
563.953	127.302
564.005	121.18
564.057	122.329
564.109	125.627
564.161	121.468
564.213	121.333
564.265	126.959
564.317	118.837
564.369	124.546
564.421	122.987
564.474	118.428
564.526	125.297
564.578	131.256
564.63	120.635
564.682	122.527
564.734	130.07
564.786	120.399
564.838	119.213
564.89	117.424
564.942	128.434
564.994	127.518
565.046	128.767
565.098	131.839
565.15	134.488
565.202	134
565.255	127.937
565.307	127.755
565.359	134.593
565.411	140.06
565.463	131.237
565.515	125.547
565.567	133.522
565.619	125.506
565.671	126.05
565.723	134.633
565.775	136.308
565.827	132.807
565.879	127.497
565.931	136.382
565.983	142.461
566.035	137.307
566.087	134.36
566.139	136.93
566.192	137.89
566.244	134.615
566.296	129.247
566.348	130.912
566.4	134.328
566.452	134.375
566.504	133.26
566.556	133.041
566.608	132
566.66	135.488
566.712	139.675
566.764	145.311
566.816	149.031
566.868	148.469
566.92	137.386
566.972	143.148
567.024	145.518
567.076	145.359
567.128	136.3
567.18	142.937
567.232	141.6
567.285	145.194
567.337	148.765
567.389	153.434
567.441	152.529
567.493	142.978
567.545	144.129
567.597	151.922
567.649	146.537
567.701	142.348
567.753	147.342
567.805	151.042
567.857	145.574
567.909	138.513
567.961	141.603
568.013	144.203
568.065	152.656
568.117	151.427
568.169	152.468
568.221	156.862
568.273	153.317
568.325	152.666
568.377	151.872
568.429	151.919
568.481	159.004
568.533	161.477
568.585	158.419
568.637	157.119
568.69	153.722
568.742	153.362
568.794	149.728
568.846	154.923
568.898	155.959
568.95	148.325
569.002	158.404
569.054	166.569
569.106	162.447
569.158	156.694
569.21	152.668
569.262	150.3
569.314	158.809
569.366	162.623
569.418	165.916
569.47	164.99
569.522	166.406
569.574	163.829
569.626	166.499
569.678	164.856
569.73	162.93
569.782	166.687
569.834	173.953
569.886	175.715
569.938	174.63
569.99	173.848
570.042	173.306
570.094	169.706
570.146	178.624
570.198	172.386
570.25	167.588
570.302	179.609
570.354	186.877
570.406	176.234
570.458	174.195
570.51	186.714
570.562	186.911
570.614	176.484
570.666	172.589
570.718	178.37
570.77	185.594
570.822	185.8
570.874	191.525
570.926	191.141
570.978	192.387
571.03	195.134
571.082	190.079
571.134	193.116
571.186	189.619
571.238	192.405
571.29	205.606
571.342	209.168
571.394	204.464
571.446	205.131
571.498	207.517
571.55	213.747
571.602	203.743
571.654	193.41
571.706	199.102
571.758	211.519
571.81	223.074
571.862	224.727
571.914	213.752
571.966	212.694
572.018	225.558
572.07	221.909
572.122	227.952
572.174	232.219
572.226	222.858
572.278	223.606
572.33	226.116
572.382	242.334
572.434	242.043
572.486	243.133
572.538	242.669
572.59	253.19
572.642	257.191
572.694	256.526
572.746	250.041
572.798	253.904
572.85	255.017
572.902	251.52
572.954	271.359
573.006	265.719
573.058	270.936
573.11	269.586
573.162	280.15
573.214	282.62
573.266	290.224
573.302	272.045
573.355	278.048
573.407	260.256
573.459	298.014
573.511	294.165
573.563	296.07
573.615	307.751
573.667	327.446
573.719	310.044
573.772	323.865
573.824	333.585
573.876	327.816
573.928	330
573.98	336.06
574.032	326.643
574.084	357.863
574.136	350.11
574.188	346.489
574.241	352.406
574.293	373.652
574.345	355.265
574.397	385.785
574.449	385.744
574.501	403.208
574.553	409.103
574.605	394.577
574.657	402.024
574.71	413.335
574.762	403.042
574.814	407.526
574.866	424.517
574.918	430.302
574.97	453.924
575.022	450.549
575.074	474.186
575.126	465.334
575.178	466.482
575.231	478.649
575.283	478.175
575.335	478.144
575.387	481.853
575.439	475.645
575.491	468.72
575.543	496.343
575.595	522.807
575.647	493.986
575.7	502.998
575.752	505.955
575.804	507.237
575.856	527.065
575.908	502.652
575.96	502.256
576.012	494.711
576.064	511.063
576.116	515.58
576.168	505.513
576.22	492.385
576.273	492.871
576.325	484.135
576.377	469.781
576.429	483.074
576.481	470.384
576.533	494.284
576.585	471.341
576.637	467.91
576.689	465.722
576.741	452.054
576.793	454.333
576.846	450.868
576.898	458.279
576.95	445.3
577.002	443.389
577.054	445.708
577.106	430.18
577.158	416.557
577.21	397.219
577.262	418.968
577.314	428.109
577.366	403.922
577.418	399.555
577.471	398.436
577.523	390.63
577.575	373.964
577.627	371.238
577.679	382.782
577.731	369.324
577.783	370.617
577.835	371.413
577.887	364.253
577.939	356.502
577.991	368.485
578.043	359.165
578.095	378.194
578.148	335.998
578.2	340.629
578.252	359.745
578.304	352.73
578.356	345.468
578.408	351.909
578.46	339.78
578.512	349.895
578.564	327.769
578.616	339
578.668	319.516
578.72	337.746
578.772	343.353
578.824	321.651
578.877	325.182
578.929	329.885
578.981	337.073
579.033	317.244
579.085	327.411
579.137	341.329
579.189	335.352
579.241	326.398
579.293	327.292
579.345	318.5
579.397	337.227
579.449	328.964
579.501	330.791
579.553	319.704
579.605	335.164
579.658	318.475
579.71	314.885
579.762	334.588
579.814	323.081
579.866	322.384
579.918	334.724
579.97	324.004
580.022	322.44
580.074	319.362
580.126	333.094
580.178	326.64
580.23	322.507
580.282	327.66
580.334	311.913
580.386	332.199
580.438	314.665
580.49	341.129
580.542	333.447
580.595	334.384
580.647	334.643
