#Acq. time (s)=	3
#Accumulations=	2
#Range (nm)=	520...900
#Windows=	16
#Auto scanning=	On
#Autofocus=	Off
#AutoExposure=	Off
#Spike filter=	Multiple accum.
#Delay time (s)=	0
#Binning=	1
#Readout mode=	Signal
#DeNoise=	Off
#ICS correction=	Off
#Dark correction=	Off
#Inst. Process=	Off
#Detector temperature (°C)=	-59.98
#Instrument=	LabRAM HR Evol
#Detector=	Syncerity OE
#Objective=	x50_VIS
#Grating=	600 (500nm)
#ND Filter=	10%
#Laser=	514nm_Edge
#Hole=	199.981
#Range=	Auto
#StageXY=	Marzhauser
#StageZ=	Marzhauser
#X (µm)=	14134.9
#Y (µm)=	-8959.1
#Z (µm)=	-148.3
#Full time(mm:ss)=	2:39
#Project=	
#Sample=	
#Site=	
#Title=	PL_SCD5_121223
#Remark=	
#Date=	21.12.2023 10:03
#Acquired=	21.12.2023 10:03:17
520.042	40
520.094	33.043
520.147	31.227
520.199	33.8137
520.251	28.3419
520.304	31.7951
520.356	27.0524
520.408	29.8393
520.461	36.886
520.513	32.2328
520.565	30.0594
520.618	31.9372
520.67	33
520.723	35.8696
520.775	32.2026
520.827	32.8605
520.88	37.8556
520.932	35.22
520.984	28.0757
521.037	34.6927
521.089	36.0791
521.141	32.2445
521.194	32.0827
521.246	32.915
521.298	34.6554
521.351	32.1791
521.403	29.1816
521.455	37.6275
521.508	33.2829
521.56	30.0966
521.612	31.2934
521.665	38.1907
521.717	34.3073
521.769	30.1048
521.822	30.2119
521.874	34.4587
521.926	33.1094
521.979	30.447
522.031	29.7742
522.083	33.8848
522.136	37.1186
522.188	35.7602
522.24	34.2445
522.293	40.2596
522.345	39.1257
522.397	31.5122
522.45	29.2584
522.502	34.4738
522.554	32.2678
522.607	35.7299
522.659	28.6868
522.711	34.0221
522.764	32.8452
522.816	32.5704
522.868	27.4366
522.921	33.56
522.973	38.702
523.025	31.6054
523.078	34.695
523.13	36.8452
523.182	36
523.234	33.4785
523.287	29.518
523.339	39.5111
523.391	38.6612
523.444	32.1676
523.496	35.8312
523.548	36.6597
523.601	34.6892
523.653	35.8254
523.705	28.3539
523.758	38.1094
523.81	37.1804
523.862	35.5483
523.915	29
523.967	32.6251
524.019	35.8112
524.072	30.5728
524.124	37.0396
524.176	36.5832
524.229	37.4098
524.281	35.3981
524.333	32.4009
524.385	31.2026
524.438	32
524.49	30
524.542	27.6286
524.595	35.3124
524.647	39.4237
524.699	34.6426
524.752	31
524.804	36.1246
524.856	38.4406
524.909	31.4447
524.961	31.2247
525.013	36.319
525.066	40
525.118	33
525.17	33.7672
525.222	38.2343
525.275	36
525.327	34
525.379	35
525.432	35.2433
525.484	40.2631
525.536	32.248
525.589	32.4965
525.641	33.9942
525.693	38
525.745	35
525.798	36.2282
525.85	34.2587
525.902	36
525.955	32.5285
526.007	31.5315
526.059	36.929
526.112	41.7299
526.164	32.0862
526.216	35.1793
526.268	34.2762
526.321	37.4435
526.373	33.1189
526.425	37.1548
526.478	35.8522
526.53	35.4266
526.582	31.2887
526.635	37.8392
526.687	36.1688
526.739	34.2937
526.791	33
526.844	35.7016
526.896	34.3993
526.948	38.303
527.001	30.61
527.053	32.7739
527.105	33.617
527.157	34.6888
527.21	31.3132
527.262	34.6853
527.314	37
527.367	37
527.419	30.2821
527.471	34.7055
527.523	39
527.576	36.9814
527.628	33
527.68	34
527.733	39.993
527.785	34.6783
527.837	30
527.889	38.3193
527.942	35
527.994	36
528.046	32.3462
528.099	37.3015
528.151	35.7016
528.203	35.7063
528.255	30
528.308	37.8601
528.36	35.4359
528.412	31.4435
528.464	34.5455
528.517	34
528.569	41.1643
528.621	39.2142
528.674	30.7436
528.726	37.8776
528.778	36.1281
528.83	36.3485
528.883	38.8998
528.935	38.8531
528.987	42.2317
529.039	36.5478
529.092	29.7786
529.144	38.6096
529.196	33
529.249	33.3946
529.301	30.6026
529.353	36
529.405	40.3963
529.458	35.2098
529.51	31.5937
529.562	37.1842
529.614	34.4615
529.667	31.4126
529.719	30.1725
529.771	34.7517
529.823	34
529.876	31.5245
529.928	32.3077
529.98	39.7238
530.033	36.4277
530.085	33.4289
530.137	36.8625
530.189	37.1329
530.242	31
530.294	37.5629
530.346	32.3201
530.398	33.1142
530.451	36.4452
530.503	31.5524
530.555	37.7949
530.607	32.1958
530.66	36.6399
530.712	35.8228
530.764	32.542
530.816	37.6189
530.869	33.6923
530.921	31.6807
530.973	37.4662
531.025	35.4685
531.078	33.1166
531.13	30.8928
531.182	31.049
531.234	39.0886
531.287	33.8811
531.339	30.5874
531.391	36
531.443	36.4854
531.496	36.4872
531.548	31.4685
531.6	32.0163
531.652	37
531.705	35.5035
531.757	35
531.809	38.4942
531.861	39.5105
531.914	37.5058
531.966	36
532.018	37.528
532.07	39
532.123	34.458
532.175	36.5524
532.227	34.4406
532.279	40
532.332	38.5233
532.384	35.4744
532.436	39.528
532.488	39.8788
532.541	37.7246
532.593	33.8648
532.645	37.6807
532.697	34.3811
532.75	36
532.802	33.9138
532.854	40.4545
532.906	40
532.958	35.1984
533.011	37.8951
533.063	39.8904
533.115	33.6713
533.167	37.4411
533.22	35
533.272	40.5641
533.324	39.7363
533.376	41.7028
533.429	35.1365
533.481	41.7904
533.533	36.8608
533.585	37.7266
533.638	35.8394
533.69	38
533.742	36.9098
533.794	40.2912
533.846	35.3907
533.899	38.7729
533.951	40.9569
534.003	38.9408
534.055	38.8314
534.108	42.7211
534.16	37.549
534.212	39.4236
534.264	38.635
534.316	40
534.369	41.433
534.421	37.4059
534.473	35.9104
534.525	42.7304
534.578	41.9183
534.63	42.9471
534.682	35.5674
534.734	40.0043
534.786	40.1237
534.839	37.021
534.891	36
534.943	40.7508
534.995	41.9316
535.047	42.2285
535.1	41.965
535.152	46.1989
535.204	40.6746
535.256	41.1397
535.309	40.8415
535.361	40.6982
535.413	42.9039
535.465	36.7085
535.517	38.3733
535.57	40.5204
535.622	45.7176
535.674	41.1791
535.726	35.1871
535.778	39.1916
535.831	45.1664
535.883	42.3675
535.935	42.4278
535.987	43.5556
536.039	44.0199
536.092	42.4489
536.144	38.4551
536.196	39.5292
536.248	40.7664
536.301	35.6287
536.353	35.9611
536.405	37.2972
536.457	43.9606
536.509	41.2217
536.562	37.0884
536.614	42.3606
536.666	43.2088
536.718	42.4995
536.77	35.8126
536.823	41.4834
536.875	41.8963
536.927	35.8179
536.979	40.6945
537.031	41.2407
537.083	47.0666
537.136	41.6721
537.188	35.8788
537.24	40.4033
537.292	45.2407
537.344	36.5207
537.397	40.8234
537.449	42.6106
537.501	44
537.553	40.0276
537.605	35.1196
537.658	39.6851
537.71	41.6897
537.762	37.3643
537.814	37.9679
537.866	42.2575
537.919	43.6887
537.971	36.7936
538.023	42.2152
538.075	40.6059
538.127	42.7548
538.18	38.0802
538.232	40.8881
538.284	44.4868
538.336	41.3019
538.388	33.8382
538.44	38.2007
538.493	44.483
538.545	43.6692
538.597	40.5726
538.649	43.5373
538.701	41.4237
538.754	43.7191
538.806	38.8622
538.858	40.9114
538.91	41.9769
538.962	44.1109
539.014	36.9765
539.067	48.5734
539.119	46.2916
539.171	47.4979
539.223	41.3215
539.275	39.207
539.327	45.4201
539.38	41.357
539.432	32.7083
539.484	40.9451
539.536	40
539.588	39.7725
539.641	36.2654
539.693	34.9101
539.745	42.2133
539.797	41.4814
539.849	39.0886
539.901	37.6051
539.954	44.599
540.006	40
540.058	38.8096
540.11	47.6031
540.162	43.419
540.214	39.7371
540.267	45.5166
540.319	46.2586
540.371	51.9603
540.423	42.8152
540.475	34.2673
540.527	38.7156
540.58	45.9531
540.632	39.2522
540.684	41.8731
540.736	47.6332
540.788	44.5795
540.84	40.8806
540.892	39.5636
540.945	41.299
540.997	45.995
541.049	48.6359
541.101	35.3969
541.153	38.8711
541.205	45.5521
541.258	42.2453
541.31	44.1799
541.362	38.3533
541.414	43.0227
541.466	45.8913
541.518	44.4948
541.57	46.3855
541.623	46.4683
541.675	39.2446
541.727	40.4464
541.779	48.3654
541.831	38.8961
541.883	41.3578
541.936	29.613
541.988	45.8647
542.04	50.0462
542.092	44.4871
542.144	42.9674
542.196	40.1687
542.248	47.1051
542.301	48.5797
542.353	45.5872
542.405	43.2133
542.457	39.4173
542.509	45.3069
542.561	43.3216
542.613	47.3618
542.666	45.9822
542.718	43.7006
542.77	44.0358
542.822	49.0953
542.874	40.5853
542.926	48.8449
542.978	50.2798
543.031	46.0201
543.083	46.6238
543.135	44.9478
543.187	43.1054
543.239	42.5205
543.291	50.8116
543.343	44.147
543.396	44.2485
543.448	48.1503
543.5	50.1914
543.552	47.3452
543.604	44.1197
543.656	48.3297
543.708	43.1055
543.76	49.2588
543.813	46.5927
543.865	56.8591
543.917	43.331
543.969	47.3126
544.021	46.4998
544.073	40.5009
544.125	53.7998
544.177	53.3527
544.23	49.8613
544.282	49.454
544.334	53.2146
544.386	53.1292
544.438	45.194
544.49	49.0768
544.542	59.1077
544.594	53.5007
544.647	52.3098
544.699	56.3149
544.751	54.0355
544.803	50.0567
544.855	43.3991
544.907	49.0066
544.959	56.7245
545.011	47.2824
545.064	44.4439
545.116	54.071
545.168	52.183
545.22	49.9887
545.272	50.3229
545.324	53.4532
545.376	47.1142
545.428	50.9157
545.48	46.9914
545.533	54.6946
545.585	54.2484
545.637	51.9325
545.689	47.3163
545.741	52.7199
545.793	55.5922
545.845	64.1687
545.897	55.8205
545.949	57.3099
546.002	51.2794
546.054	53.2561
546.106	45.7102
546.158	52.5672
546.21	50.5585
546.262	50.1663
546.314	45.1344
546.366	57.2479
546.418	56.6365
546.471	49.4347
546.523	44.7556
546.575	60.3989
546.627	57.4178
546.679	54.366
546.689	54.0065
546.741	50.0442
546.793	59.9155
546.845	49.9522
546.898	47.9948
546.95	53.9845
547.002	50.0542
547.054	61.8176
547.106	50.0861
547.159	55.9776
547.211	59.8183
547.263	57.7017
547.315	55.7152
547.368	59.7432
547.42	65.6462
547.472	69.5107
547.524	55.9837
547.577	54.1329
547.629	61.6654
547.681	61.4951
547.733	55.9039
547.785	61.9703
547.838	59.944
547.89	65.5567
547.942	61.572
547.994	54.1429
548.047	56.1806
548.099	54.3382
548.151	58.349
548.203	65.734
548.255	59.7939
548.308	61.7315
548.36	54.3336
548.412	65.5739
548.464	67.4163
548.517	61.8502
548.569	58.4033
548.621	62.0261
548.673	68.9038
548.725	61.9672
548.778	51.0497
548.83	65.2745
548.882	68.5137
548.934	65.301
548.987	60.5948
549.039	64.0733
549.091	58.3227
549.143	67.0024
549.195	61.9703
549.248	63.3872
549.3	63.2965
549.352	63.3114
549.404	54.9714
549.456	71.3148
549.509	65.7186
549.561	60.4311
549.613	55.0339
549.665	67.8282
549.718	63.6538
549.77	63.5533
549.822	64.6712
549.874	74.8728
549.926	63.7779
549.979	73.756
550.031	63.7464
550.083	66.6027
550.135	71.1051
550.187	71.3569
550.24	67.912
550.292	70.0958
550.344	70.286
550.396	68.3849
550.448	66.2938
550.501	71.0101
550.553	77.3828
550.605	64.5107
550.657	76.6475
550.709	72.6265
550.762	74.0118
550.814	78.9062
550.866	77.9139
550.918	68.7612
550.97	77.3346
551.023	88.9708
551.075	72.4454
551.127	80.6511
551.179	82.0932
551.231	78.8863
551.284	81.8873
551.336	83.3696
551.388	82.5795
551.44	88.3244
551.492	93.8912
551.545	93.8427
551.597	90.7008
551.649	85.7527
551.701	86.6459
551.753	102.452
551.806	103.761
551.858	110.221
551.91	109.208
551.962	125.154
552.014	129.645
552.067	134.494
552.119	153.904
552.171	169.405
552.223	182.248
552.275	230.351
552.327	271.273
552.38	394.611
552.432	709.686
552.484	1601.98
552.536	3120.62
552.588	5672.58
552.641	9587.51
552.693	12906.2
552.745	9328.96
552.797	4625.09
552.849	1821.79
552.901	736.2
552.954	422.418
553.006	291.905
553.058	229.091
553.11	193.062
553.162	167.278
553.215	149.668
553.267	138.77
553.319	129.016
553.371	117.61
553.423	109.657
553.475	105.417
553.528	95.5379
553.58	103.801
553.632	102.423
553.684	94.635
553.736	91.6787
553.788	94
553.841	88.5087
553.893	101.557
553.945	91.2401
553.997	93.7939
554.049	86.7016
554.102	89.0814
554.154	89.5605
554.206	94.7865
554.258	86.6819
554.31	88.6849
554.362	92.1026
554.414	90.3646
554.467	83.9301
554.519	87.3107
554.571	91.1026
554.623	95.7866
554.675	84.0989
554.727	90.4554
554.78	86.1751
554.832	84.7177
554.884	94.973
554.936	90.1907
554.988	78.2934
555.04	85.9229
555.093	92.9053
555.145	85.9555
555.197	92.8416
555.249	85.819
555.301	90.4215
555.353	84.8151
555.406	91.24
555.458	91.6539
555.51	88.3279
555.562	85.6286
555.614	84.1244
555.666	89.6562
555.719	96.3467
555.771	90.7713
555.823	91.3891
555.875	95.0668
555.927	97.0074
555.979	87.2179
556.031	86.6543
556.084	90.9972
556.136	88.699
556.188	95.3276
556.24	91.9685
556.292	91.5432
556.344	96.5982
556.396	93.8691
556.449	92.3227
556.501	93.1653
556.553	93.5601
556.605	89.0884
556.657	90.4606
556.709	102.002
556.762	95.6979
556.814	94.2507
556.866	83.832
556.918	95.3154
556.97	101.544
557.022	100.322
557.074	90.1408
557.127	95.7061
557.179	102.409
557.231	102.401
557.283	98.6796
557.335	97.5382
557.387	100.548
557.439	101.556
557.492	95.1347
557.544	101.517
557.596	96.765
557.648	89.4433
557.7	97.1971
557.752	92.1587
557.804	109.911
557.856	96.6263
557.909	99.9305
557.961	101.297
558.013	93.9318
558.065	90.7338
558.117	105.384
558.169	99.1303
558.221	100.28
558.273	102.87
558.326	100.892
558.378	99.3154
558.43	106.887
558.482	106
558.534	94.699
558.586	96.9008
558.638	106.479
558.691	108.534
558.743	106.759
558.795	109.277
558.847	106.731
558.899	97.4275
558.951	113.758
559.003	103.852
559.055	103.88
559.108	105.386
559.16	108.227
559.212	107.325
559.264	101.604
559.316	112.823
559.368	114.045
559.42	109.569
559.472	107.833
559.525	119.632
559.577	105.543
559.629	114.906
559.681	113.631
559.733	107.236
559.785	104.246
559.837	112.71
559.889	110.259
559.941	95.3804
559.994	102.438
560.046	113.125
560.098	114.535
560.15	112.145
560.202	117.957
560.254	114.08
560.306	110.168
560.358	118.604
560.41	111.42
560.463	120.412
560.515	118.107
560.567	113.05
560.619	121.922
560.671	117.65
560.723	122.528
560.775	121.152
560.827	115.165
560.879	117.286
560.932	119.801
560.984	118.438
561.036	123.196
561.088	114.154
561.14	118.393
561.192	127.4
561.244	117.909
561.296	116.693
561.348	121.984
561.4	118.799
561.453	117.015
561.505	117.974
561.557	121.675
561.609	125.94
561.661	127.799
561.713	128.751
561.765	127.598
561.817	129.754
561.869	131.764
561.921	128.123
561.974	128.054
562.026	130.032
562.078	131.967
562.13	128.504
562.182	130.587
562.234	119.073
562.286	129.064
562.338	129.956
562.39	131.342
562.442	137.007
562.494	126.434
562.547	135.262
562.599	137.198
562.651	135.775
562.703	138.939
562.755	133.354
562.807	128.511
562.859	127.18
562.911	133.718
562.963	137.336
563.015	131.057
563.067	136.296
563.12	137.583
563.172	128.831
563.224	141.578
563.276	136.881
563.328	142.591
563.38	147.459
563.432	141.439
563.484	137.743
563.536	145.643
563.588	145.815
563.64	133.91
563.692	139.512
563.744	140
563.797	147.035
563.849	148.313
563.901	141.547
563.953	146.889
564.005	138.368
564.057	132.481
564.109	154.334
564.161	151.301
564.213	138.901
564.265	142.504
564.317	143.054
564.369	145.337
564.421	148.285
564.474	151.205
564.526	149.392
564.578	148
564.63	148.968
564.682	149.627
564.734	159.158
564.786	156.653
564.838	154.819
564.89	156.628
564.942	150.436
564.994	154.479
565.046	159.833
565.098	156.244
565.15	158.773
565.202	166.062
565.255	162.43
565.307	162.968
565.359	159.163
565.411	160.814
565.463	150.963
565.515	165.846
565.567	163.85
565.619	160.313
565.671	161.293
565.723	155.829
565.775	162.005
565.827	163.127
565.879	168.959
565.931	164.638
565.983	168
566.035	161.745
566.087	169.021
566.139	162.027
566.192	166.905
566.244	170.77
566.296	176
566.348	174.012
566.4	175.031
566.452	181.718
566.504	172.861
566.556	163.902
566.608	167.537
566.66	169.076
566.712	171.569
566.764	174.032
566.816	175.28
566.868	173.415
566.92	181.071
566.972	181.054
567.024	170.819
567.076	170.219
567.128	180.808
567.18	175.512
567.232	173.813
567.285	185.81
567.337	182.521
567.389	183.08
567.441	180.863
567.493	177.192
567.545	186.668
567.597	188.548
567.649	185.89
567.701	191.116
567.753	194.533
567.805	189.368
567.857	190.531
567.909	183.072
567.961	181.492
568.013	175.769
568.065	182.362
568.117	193.549
568.169	195.064
568.221	193.559
568.273	193.763
568.325	192.405
568.377	188.897
568.429	189.636
568.481	189.478
568.533	192.939
568.585	195.475
568.637	184.739
568.69	189.025
568.742	198.314
568.794	202.469
568.846	203.074
568.898	203.192
568.95	193.642
569.002	200.275
569.054	202.901
569.106	202.721
569.158	202.254
569.21	199.478
569.262	204.49
569.314	206.607
569.366	204
569.418	213.513
569.47	210.835
569.522	209.206
569.574	216.054
569.626	210.693
569.678	212.196
569.73	211.202
569.782	205.839
569.834	208.961
569.886	218.052
569.938	222.499
569.99	228
570.042	226.541
570.094	227.874
570.146	224.996
570.198	220.938
570.25	226.586
570.302	220.422
570.354	218.991
570.406	227.982
570.458	235.432
570.51	226.345
570.562	228.624
570.614	233.77
570.666	233.879
570.718	244.787
570.77	236.273
570.822	241.626
570.874	249.79
570.926	247.243
570.978	249.54
571.03	254.169
571.082	260.582
571.134	263.609
571.186	261.353
571.238	262.826
571.29	258.485
571.342	262.189
571.394	254.363
571.446	257.367
571.498	271.044
571.55	266.537
571.602	259.185
571.654	273.245
571.706	277.248
571.758	269.863
571.81	278.925
571.862	282.101
571.914	286.386
571.966	282.664
572.018	277.606
572.07	288.338
572.122	293.941
572.174	281.365
572.226	288.847
572.278	311.172
572.33	309.114
572.382	314.538
572.434	305.853
572.486	301.732
572.538	319.123
572.59	318.963
572.642	324.754
572.694	333.359
572.746	335.854
572.798	345.822
572.85	348.842
572.902	345.521
572.954	347.402
573.006	349.07
573.058	342.99
573.11	358.195
573.162	367.971
573.214	369.257
573.266	378.596
573.302	393.968
573.355	381.987
573.407	375.943
573.459	378.064
573.511	392.124
573.563	417.708
573.615	400.119
573.667	423.852
573.719	410.248
573.772	437.913
573.824	392.875
573.876	437.526
573.928	449.576
573.98	451.969
574.032	460.032
574.084	466.067
574.136	472.107
574.188	478.224
574.241	488.315
574.293	488.547
574.345	494.562
574.397	495.007
574.449	514.421
574.501	522.442
574.553	555.453
574.605	522.398
574.657	564.445
574.71	557.084
574.762	566.325
574.814	593.359
574.866	592.477
574.918	602.01
574.97	613.381
575.022	603.942
575.074	628.299
575.126	605.41
575.178	648.429
575.231	649.612
575.283	662.065
575.335	686.54
575.387	674.313
575.439	668.42
575.491	695.807
575.543	694.934
575.595	699.099
575.647	693.84
575.7	707.213
575.752	703.917
575.804	695.414
575.856	701.834
575.908	698.889
575.96	714.344
576.012	698.522
576.064	701.652
576.116	694.44
576.168	727.763
576.22	711.747
576.273	690.572
576.325	667.142
576.377	693.572
576.429	699.021
576.481	701.787
576.533	664.445
576.585	663.357
576.637	678.328
576.689	675.665
576.741	645.381
576.793	634.901
576.846	631.886
576.898	624.741
576.95	640.757
577.002	597.867
577.054	631.561
577.106	591.1
577.158	580.969
577.21	586.047
577.262	590.138
577.314	577.073
577.366	579.513
577.418	568.967
577.471	557.746
577.523	558.485
577.575	545.708
577.627	538.305
577.679	532.846
577.731	509.774
577.783	547.112
577.835	531.132
577.887	527.527
577.939	508.593
577.991	513.597
578.043	520.956
578.095	507.743
578.148	502.27
578.2	492.746
578.252	486.991
578.304	500.882
578.356	480.894
578.408	475.466
578.46	470.438
578.512	463.156
578.564	462.351
578.616	465.057
578.668	476.706
578.72	445.594
578.772	466.32
578.824	457.277
578.877	434.225
578.929	467.617
578.981	471.515
579.033	456.73
579.085	451.1
579.137	454.928
579.189	429.414
579.241	444.263
579.293	444.564
579.345	455.17
579.397	445.329
579.449	441.705
579.501	446.707
579.553	444.249
579.605	452.88
579.658	440.39
579.71	458.022
579.762	435.717
579.814	442.716
579.866	452.627
579.918	438.771
579.97	428.467
580.022	441.668
580.074	442.629
580.126	429.334
580.178	432.062
580.23	458.033
580.282	441.088
580.334	444.234
580.386	452.054
580.438	435.947
580.49	448.285
580.542	452.082
580.595	454.714
